%OpenBCI Raw EEG Data
%
%Sample Rate = 250.0 Hz
%First Column = Time (ms)
%Other Columns = EEG data in microvolts followed by Accel Data (in G) interleaved with Aux Data
0.0, -42487.87, -5920.46, -11234.23, -6819.56, -4946.08, -2500.44, -20558.33, -40498.07, 0.00, 0.00, 0.00
4.0, -41826.59, -5999.23, -10829.46, -6321.94, -4835.84, -2713.10, -20784.66, -40284.12, 0.00, 0.00, 0.00
8.0, -41410.18, -6083.18, -10502.06, -6108.58, -4851.96, -2707.78, -20767.61, -40032.66, 0.00, 0.00, 0.00
12.0, -42026.11, -5991.74, -10855.26, -6612.00, -4956.30, -2495.06, -20549.14, -40228.60, 0.00, 0.00, 0.00
16.0, -42533.22, -5892.99, -11220.40, -6898.46, -4959.90, -2490.14, -20560.70, -40513.30, 0.00, 0.00, 0.00
20.0, -41990.61, -5935.75, -10901.55, -6458.89, -4847.94, -2680.98, -20763.47, -40364.68, 0.00, 0.00, 0.00
24.0, -41431.37, -6024.82, -10488.49, -6128.76, -4830.82, -2726.33, -20802.41, -40074.35, 0.00, 0.00, 0.00
28.0, -41869.00, -5981.84, -10701.95, -6507.46, -4939.15, -2556.79, -20623.24, -40150.86, 0.00, 0.00, 0.00
32.0, -42533.87, -5831.37, -11168.56, -6936.39, -4985.20, -2466.78, -20543.24, -40495.91, 0.00, 0.00, 0.00
36.0, -42143.74, -5854.30, -10958.30, -6588.60, -4881.55, -2667.14, -20760.90, -40420.27, 0.00, 0.00, 0.00
40.0, -41463.71, -5959.78, -10478.25, -6149.01, -4833.27, -2756.66, -20844.05, -40094.60, 0.00, 0.00, 0.00
44.0, -41747.98, -5938.57, -10586.84, -6427.78, -4921.74, -2591.48, -20665.28, -40101.75, 0.00, 0.00, 0.00
48.0, -42508.75, -5805.06, -11095.99, -6935.39, -4982.85, -2460.79, -20544.85, -40450.73, 0.00, 0.00, 0.00
52.0, -42318.69, -5797.13, -11021.62, -6715.51, -4886.31, -2612.61, -20718.41, -40466.07, 0.00, 0.00, 0.00
56.0, -41565.70, -5894.31, -10506.42, -6199.50, -4812.06, -2757.27, -20864.15, -40128.80, 0.00, 0.00, 0.00
60.0, -41666.58, -5880.45, -10492.04, -6357.04, -4878.13, -2619.74, -20712.15, -40057.36, 0.00, 0.00, 0.00
64.0, -42448.55, -5753.03, -10991.96, -6904.50, -4958.35, -2459.97, -20554.82, -40381.73, 0.00, 0.00, 0.00
68.0, -42454.95, -5727.19, -11053.32, -6822.91, -4890.70, -2574.52, -20688.44, -40489.22, 0.00, 0.00, 0.00
72.0, -41675.07, -5852.78, -10539.79, -6269.15, -4794.54, -2754.09, -20872.21, -40167.80, 0.00, 0.00, 0.00
76.0, -41597.96, -5887.70, -10423.53, -6311.13, -4854.58, -2647.88, -20746.46, -40038.28, 0.00, 0.00, 0.00
80.0, -42374.35, -5762.28, -10911.23, -6889.72, -4948.81, -2463.65, -20560.16, -40341.07, 0.00, 0.00, 0.00
84.0, -42564.85, -5712.01, -11084.79, -6937.80, -4908.78, -2558.07, -20677.15, -40509.79, 0.00, 0.00, 0.00
88.0, -41821.36, -5801.37, -10606.37, -6386.76, -4806.99, -2753.69, -20882.38, -40227.30, 0.00, 0.00, 0.00
92.0, -41544.38, -5861.48, -10360.28, -6275.45, -4840.07, -2708.27, -20820.85, -40017.78, 0.00, 0.00, 0.00
96.0, -42243.61, -5765.77, -10778.44, -6815.83, -4949.44, -2501.58, -20604.26, -40260.07, 0.00, 0.00, 0.00
100.0, -42637.79, -5681.72, -11082.13, -7017.64, -4933.68, -2526.89, -20649.39, -40516.54, 0.00, 0.00, 0.00
104.0, -41995.46, -5761.99, -10684.45, -6519.76, -4825.56, -2737.55, -20872.93, -40304.46, 0.00, 0.00, 0.00
108.0, -41560.07, -5847.26, -10341.53, -6286.25, -4835.82, -2733.55, -20854.76, -40045.99, 0.00, 0.00, 0.00
112.0, -42136.99, -5778.55, -10661.20, -6757.65, -4942.51, -2533.82, -20645.43, -40209.04, 0.00, 0.00, 0.00
116.0, -42706.23, -5667.13, -11073.32, -7102.51, -4956.86, -2487.86, -20614.59, -40530.89, 0.00, 0.00, 0.00
120.0, -42185.52, -5738.61, -10764.04, -6673.20, -4843.13, -2700.02, -20843.94, -40387.23, 0.00, 0.00, 0.00
124.0, -41598.05, -5846.57, -10333.05, -6321.05, -4821.74, -2747.32, -20882.52, -40089.11, 0.00, 0.00, 0.00
128.0, -42044.66, -5787.00, -10556.91, -6725.53, -4919.37, -2548.97, -20677.31, -40191.74, 0.00, 0.00, 0.00
132.0, -42723.70, -5663.69, -11017.93, -7159.31, -4958.78, -2479.68, -20622.70, -40522.57, 0.00, 0.00, 0.00
136.0, -42368.69, -5692.94, -10827.34, -6826.54, -4862.47, -2679.44, -20841.62, -40455.34, 0.00, 0.00, 0.00
140.0, -41676.26, -5795.40, -10344.63, -6374.65, -4816.33, -2770.99, -20931.45, -40131.19, 0.00, 0.00, 0.00
144.0, -41921.57, -5775.29, -10426.06, -6632.81, -4897.54, -2621.08, -20768.10, -40120.17, 0.00, 0.00, 0.00
148.0, -42667.94, -5645.87, -10911.61, -7120.73, -4967.79, -2500.06, -20655.20, -40435.60, 0.00, 0.00, 0.00
152.0, -42527.88, -5627.01, -10874.01, -6929.67, -4886.40, -2636.86, -20811.96, -40475.57, 0.00, 0.00, 0.00
156.0, -41787.10, -5726.05, -10379.12, -6427.00, -4806.83, -2770.63, -20947.94, -40163.42, 0.00, 0.00, 0.00
160.0, -41857.51, -5729.62, -10350.76, -6572.66, -4868.59, -2642.69, -20804.13, -40081.35, 0.00, 0.00, 0.00
164.0, -42654.32, -5605.42, -10858.08, -7138.88, -4953.21, -2474.14, -20639.76, -40408.20, 0.00, 0.00, 0.00
168.0, -42710.70, -5573.41, -10947.79, -7093.64, -4886.63, -2580.75, -20765.66, -40535.38, 0.00, 0.00, 0.00
172.0, -41918.28, -5711.34, -10425.12, -6522.13, -4791.21, -2782.37, -20972.71, -40204.95, 0.00, 0.00, 0.00
176.0, -41784.84, -5763.71, -10269.11, -6517.90, -4849.01, -2695.15, -20872.28, -40045.56, 0.00, 0.00, 0.00
180.0, -42542.14, -5650.32, -10738.58, -7082.82, -4950.44, -2493.81, -20665.28, -40332.52, 0.00, 0.00, 0.00
184.0, -42815.14, -5558.74, -10978.08, -7210.31, -4905.74, -2526.35, -20715.82, -40564.21, 0.00, 0.00, 0.00
188.0, -42083.80, -5665.79, -10516.03, -6677.85, -4793.53, -2745.06, -20950.09, -40298.50, 0.00, 0.00, 0.00
192.0, -41752.27, -5745.72, -10235.02, -6531.76, -4815.24, -2721.68, -20912.60, -40061.63, 0.00, 0.00, 0.00
196.0, -42406.64, -5652.35, -10617.79, -7041.63, -4921.41, -2516.78, -20696.48, -40264.50, 0.00, 0.00, 0.00
200.0, -42850.17, -5538.94, -10959.93, -7291.23, -4910.48, -2501.76, -20701.60, -40547.96, 0.00, 0.00, 0.00
204.0, -42210.55, -5639.43, -10569.54, -6795.13, -4799.63, -2728.83, -20942.89, -40336.23, 0.00, 0.00, 0.00
208.0, -41720.25, -5747.62, -10199.79, -6520.65, -4809.54, -2752.97, -20952.95, -40054.01, 0.00, 0.00, 0.00
212.0, -42249.76, -5681.28, -10493.96, -6963.37, -4916.74, -2566.65, -20751.16, -40189.39, 0.00, 0.00, 0.00
216.0, -42820.38, -5563.08, -10904.50, -7307.25, -4937.77, -2515.71, -20711.21, -40496.64, 0.00, 0.00, 0.00
220.0, -42345.13, -5587.42, -10638.25, -6917.02, -4825.34, -2701.48, -20916.22, -40389.29, 0.00, 0.00, 0.00
224.0, -41719.38, -5703.14, -10192.55, -6532.99, -4801.24, -2782.64, -20989.16, -40075.25, 0.00, 0.00, 0.00
228.0, -42101.16, -5669.21, -10374.14, -6883.35, -4899.17, -2614.06, -20806.03, -40132.54, 0.00, 0.00, 0.00
232.0, -42804.04, -5550.14, -10856.15, -7343.08, -4954.76, -2521.70, -20723.26, -40475.23, 0.00, 0.00, 0.00
236.0, -42503.79, -5566.30, -10721.48, -7068.31, -4861.53, -2686.10, -20907.02, -40459.61, 0.00, 0.00, 0.00
240.0, -41774.49, -5687.94, -10228.14, -6600.16, -4800.98, -2802.84, -21021.68, -40132.46, 0.00, 0.00, 0.00
244.0, -41947.67, -5703.29, -10268.86, -6813.86, -4884.15, -2674.63, -20879.86, -40084.84, 0.00, 0.00, 0.00
248.0, -42697.57, -5586.91, -10771.77, -7330.37, -4963.58, -2527.96, -20735.31, -40416.96, 0.00, 0.00, 0.00
252.0, -42591.27, -5564.62, -10770.12, -7186.51, -4884.64, -2650.72, -20881.60, -40491.01, 0.00, 0.00, 0.00
256.0, -41814.05, -5675.20, -10259.36, -6660.17, -4805.51, -2804.56, -21039.00, -40166.69, 0.00, 0.00, 0.00
260.0, -41823.96, -5681.23, -10200.75, -6769.23, -4872.88, -2692.87, -20909.01, -40064.92, 0.00, 0.00, 0.00
264.0, -42601.84, -5547.10, -10699.58, -7331.46, -4964.55, -2520.14, -20736.27, -40381.82, 0.00, 0.00, 0.00
268.0, -42690.64, -5493.63, -10812.70, -7311.30, -4906.23, -2614.75, -20854.13, -40525.45, 0.00, 0.00, 0.00
272.0, -41915.60, -5618.92, -10307.69, -6754.90, -4805.51, -2805.28, -21053.60, -40217.13, 0.00, 0.00, 0.00
276.0, -41722.12, -5680.85, -10109.16, -6703.09, -4847.60, -2749.35, -20986.41, -40022.21, 0.00, 0.00, 0.00
280.0, -42456.69, -5562.54, -10559.23, -7251.75, -4949.15, -2548.41, -20775.79, -40288.26, 0.00, 0.00, 0.00
284.0, -42749.12, -5471.30, -10807.47, -7382.16, -4911.77, -2590.01, -20834.31, -40516.69, 0.00, 0.00, 0.00
288.0, -42038.45, -5558.79, -10365.40, -6855.93, -4804.48, -2791.71, -21046.18, -40271.45, 0.00, 0.00, 0.00
292.0, -41674.18, -5644.40, -10067.27, -6681.41, -4829.61, -2775.46, -21020.85, -40029.18, 0.00, 0.00, 0.00
296.0, -42324.17, -5540.17, -10450.07, -7197.62, -4936.09, -2553.87, -20788.06, -40241.10, 0.00, 0.00, 0.00
300.0, -42805.18, -5418.31, -10813.21, -7477.64, -4926.79, -2544.23, -20793.74, -40542.17, 0.00, 0.00, 0.00
304.0, -42205.79, -5492.40, -10452.26, -7009.91, -4813.49, -2765.98, -21033.79, -40359.96, 0.00, 0.00, 0.00
308.0, -41694.56, -5575.75, -10068.54, -6720.97, -4806.56, -2787.64, -21048.30, -40078.82, 0.00, 0.00, 0.00
312.0, -42187.57, -5520.19, -10331.02, -7141.56, -4908.80, -2605.50, -20856.90, -40192.57, 0.00, 0.00, 0.00
316.0, -42784.50, -5390.37, -10766.01, -7521.99, -4929.74, -2536.05, -20802.12, -40513.90, 0.00, 0.00, 0.00
320.0, -42312.25, -5441.29, -10509.77, -7134.48, -4818.19, -2733.08, -21018.62, -40404.04, 0.00, 0.00, 0.00
324.0, -41638.21, -5572.04, -10041.95, -6716.97, -4785.04, -2817.57, -21096.43, -40074.04, 0.00, 0.00, 0.00
328.0, -41956.82, -5545.76, -10188.86, -7029.56, -4877.04, -2653.53, -20916.63, -40097.55, 0.00, 0.00, 0.00
332.0, -42651.13, -5420.66, -10666.61, -7485.17, -4932.99, -2549.37, -20820.87, -40422.10, 0.00, 0.00, 0.00
336.0, -42382.13, -5431.83, -10555.88, -7227.21, -4837.63, -2711.80, -21002.91, -40418.23, 0.00, 0.00, 0.00
340.0, -41628.34, -5563.04, -10052.21, -6733.06, -4772.34, -2836.82, -21122.22, -40081.93, 0.00, 0.00, 0.00
344.0, -41782.72, -5565.16, -10089.20, -6943.06, -4849.21, -2692.65, -20963.21, -40041.59, 0.00, 0.00, 0.00
348.0, -42570.17, -5415.54, -10611.54, -7499.50, -4923.91, -2534.26, -20809.05, -40393.94, 0.00, 0.00, 0.00
352.0, -42503.38, -5386.86, -10625.37, -7373.64, -4846.08, -2669.51, -20964.35, -40473.84, 0.00, 0.00, 0.00
356.0, -41715.39, -5503.20, -10107.19, -6829.51, -4763.31, -2836.79, -21138.18, -40147.29, 0.00, 0.00, 0.00
360.0, -41679.50, -5516.99, -10021.72, -6906.40, -4827.15, -2725.95, -21009.66, -40029.89, 0.00, 0.00, 0.00
364.0, -42446.59, -5356.68, -10517.23, -7477.17, -4913.74, -2536.48, -20820.38, -40340.70, 0.00, 0.00, 0.00
368.0, -42562.88, -5292.85, -10653.31, -7479.12, -4854.37, -2628.52, -20936.12, -40488.82, 0.00, 0.00, 0.00
372.0, -41794.56, -5396.43, -10164.05, -6924.88, -4752.07, -2817.19, -21132.37, -40189.46, 0.00, 0.00, 0.00
376.0, -41565.77, -5467.71, -9949.41, -6851.57, -4796.59, -2773.74, -21071.37, -39984.72, 0.00, 0.00, 0.00
380.0, -42282.95, -5359.97, -10385.63, -7398.49, -4902.92, -2567.68, -20856.46, -40238.48, 0.00, 0.00, 0.00
384.0, -42609.91, -5270.18, -10654.05, -7557.21, -4879.10, -2604.40, -20910.95, -40477.02, 0.00, 0.00, 0.00
388.0, -41921.46, -5348.33, -10232.79, -7040.96, -4767.20, -2805.17, -21122.35, -40244.23, 0.00, 0.00, 0.00
392.0, -41513.02, -5421.33, -9905.00, -6827.63, -4780.30, -2807.27, -21116.74, -39979.04, 0.00, 0.00, 0.00
396.0, -42094.43, -5350.16, -10229.12, -7282.24, -4895.57, -2630.89, -20932.10, -40129.25, 0.00, 0.00, 0.00
400.0, -42597.02, -5225.19, -10606.06, -7568.10, -4909.36, -2605.45, -20917.12, -40424.96, 0.00, 0.00, 0.00
404.0, -42018.39, -5276.78, -10265.91, -7101.64, -4795.37, -2817.68, -21145.93, -40251.49, 0.00, 0.00, 0.00
408.0, -41464.41, -5377.47, -9868.63, -6777.70, -4779.67, -2845.73, -21164.78, -39960.02, 0.00, 0.00, 0.00
412.0, -41918.62, -5351.43, -10109.40, -7170.06, -4881.00, -2669.38, -20973.13, -40051.02, 0.00, 0.00, 0.00
416.0, -42567.53, -5217.37, -10575.86, -7585.33, -4911.71, -2582.30, -20895.71, -40394.23, 0.00, 0.00, 0.00
420.0, -42179.84, -5241.04, -10382.03, -7256.96, -4797.18, -2754.43, -21087.91, -40338.44, 0.00, 0.00, 0.00
424.0, -41470.33, -5377.02, -9888.52, -6799.51, -4752.67, -2878.68, -21210.38, -39984.41, 0.00, 0.00, 0.00
428.0, -41738.57, -5353.29, -9996.86, -7062.26, -4856.74, -2724.10, -21039.96, -39970.66, 0.00, 0.00, 0.00
432.0, -42492.25, -5178.59, -10512.16, -7571.05, -4914.19, -2571.88, -20895.46, -40331.02, 0.00, 0.00, 0.00
436.0, -42267.04, -5190.10, -10416.90, -7326.68, -4819.10, -2746.63, -21089.16, -40328.18, 0.00, 0.00, 0.00
440.0, -41501.13, -5311.65, -9897.96, -6800.99, -4752.14, -2892.78, -21232.37, -39975.07, 0.00, 0.00, 0.00
444.0, -41608.26, -5316.36, -9895.99, -6959.28, -4829.50, -2752.73, -21078.74, -39898.78, 0.00, 0.00, 0.00
448.0, -42405.04, -5152.84, -10428.05, -7526.93, -4907.26, -2565.00, -20894.61, -40253.86, 0.00, 0.00, 0.00
452.0, -42400.57, -5086.52, -10497.27, -7457.28, -4829.41, -2676.40, -21028.12, -40379.59, 0.00, 0.00, 0.00
456.0, -41603.99, -5208.90, -9983.36, -6905.03, -4736.31, -2871.86, -21224.90, -40052.07, 0.00, 0.00, 0.00
460.0, -41497.18, -5263.19, -9848.42, -6918.00, -4792.46, -2801.90, -21139.09, -39885.34, 0.00, 0.00, 0.00
464.0, -42238.45, -5156.73, -10314.75, -7450.71, -4896.91, -2619.71, -20954.92, -40159.63, 0.00, 0.00, 0.00
468.0, -42457.41, -5060.21, -10532.25, -7537.03, -4848.16, -2646.38, -20998.59, -40384.46, 0.00, 0.00, 0.00
472.0, -41712.31, -5152.68, -10068.63, -7005.48, -4727.17, -2844.57, -21204.96, -40114.00, 0.00, 0.00, 0.00
476.0, -41415.30, -5233.50, -9809.89, -6879.55, -4756.00, -2812.25, -21164.02, -39877.05, 0.00, 0.00, 0.00
480.0, -42100.94, -5127.85, -10225.57, -7411.12, -4866.22, -2601.79, -20947.52, -40112.55, 0.00, 0.00, 0.00
484.0, -42461.81, -5040.45, -10515.51, -7594.36, -4851.63, -2627.83, -20991.15, -40360.36, 0.00, 0.00, 0.00
488.0, -41801.07, -5126.17, -10114.79, -7091.34, -4742.53, -2831.07, -21204.99, -40142.55, 0.00, 0.00, 0.00
492.0, -41357.45, -5218.08, -9768.74, -6850.63, -4742.50, -2829.78, -21193.74, -39867.84, 0.00, 0.00, 0.00
496.0, -41924.59, -5163.72, -10082.25, -7302.81, -4850.48, -2645.80, -20999.91, -40012.44, 0.00, 0.00, 0.00
500.0, -42459.66, -5038.44, -10477.58, -7619.51, -4862.55, -2610.19, -20978.50, -40318.90, 0.00, 0.00, 0.00
504.0, -41919.69, -5093.36, -10170.47, -7181.26, -4756.90, -2815.25, -21200.88, -40171.80, 0.00, 0.00, 0.00
508.0, -41341.20, -5185.78, -9757.65, -6839.28, -4738.26, -2855.14, -21230.49, -39876.70, 0.00, 0.00, 0.00
512.0, -41767.36, -5129.21, -9974.22, -7222.83, -4835.71, -2676.67, -21040.95, -39957.14, 0.00, 0.00, 0.00
516.0, -42427.79, -5018.17, -10430.13, -7637.48, -4882.31, -2606.37, -20978.34, -40285.33, 0.00, 0.00, 0.00
520.0, -42089.36, -5047.29, -10256.46, -7326.72, -4779.12, -2772.31, -21159.55, -40247.24, 0.00, 0.00, 0.00
524.0, -41402.85, -5181.18, -9767.62, -6873.92, -4724.89, -2879.35, -21256.46, -39916.75, 0.00, 0.00, 0.00
528.0, -41687.23, -5236.97, -9870.31, -7152.20, -4806.47, -2716.23, -21075.64, -39922.70, 0.00, 0.00, 0.00
532.0, -42458.79, -5181.16, -10374.27, -7662.83, -4876.19, -2604.43, -20966.18, -40270.04, 0.00, 0.00, 0.00
536.0, -42316.39, -5171.30, -10332.67, -7478.00, -4795.75, -2755.05, -21129.53, -40323.11, 0.00, 0.00, 0.00
540.0, -41568.01, -5278.83, -9832.06, -6974.06, -4719.82, -2902.60, -21275.11, -40005.62, 0.00, 0.00, 0.00
544.0, -41601.63, -5316.18, -9777.19, -7081.50, -4786.63, -2806.19, -21162.01, -39890.40, 0.00, 0.00, 0.00
548.0, -42361.23, -5197.21, -10269.51, -7612.76, -4874.78, -2641.37, -20996.60, -40202.98, 0.00, 0.00, 0.00
552.0, -42392.16, -5170.99, -10349.66, -7544.14, -4813.72, -2763.26, -21134.31, -40324.82, 0.00, 0.00, 0.00
556.0, -41628.51, -5291.98, -9848.78, -6988.76, -4724.44, -2942.16, -21315.74, -40010.92, 0.00, 0.00, 0.00
560.0, -41536.31, -5303.98, -9722.76, -7012.39, -4776.50, -2844.68, -21204.21, -39871.09, 0.00, 0.00, 0.00
564.0, -42296.20, -5192.00, -10205.85, -7577.55, -4884.10, -2670.77, -21029.44, -40163.31, 0.00, 0.00, 0.00
568.0, -42525.20, -5132.72, -10431.47, -7670.83, -4851.47, -2730.31, -21111.31, -40377.91, 0.00, 0.00, 0.00
572.0, -41797.14, -5210.33, -9983.07, -7147.91, -4734.28, -2917.62, -21309.10, -40123.48, 0.00, 0.00, 0.00
576.0, -41458.55, -5281.94, -9692.90, -6986.26, -4748.87, -2898.84, -21279.35, -39864.87, 0.00, 0.00, 0.00
580.0, -42097.21, -5194.37, -10066.73, -7469.39, -4860.32, -2716.50, -21093.03, -40052.45, 0.00, 0.00, 0.00
584.0, -42507.92, -5083.14, -10399.66, -7691.79, -4861.66, -2717.55, -21116.61, -40330.52, 0.00, 0.00, 0.00
588.0, -41869.00, -5108.04, -10030.79, -7209.67, -4746.71, -2907.60, -21322.13, -40140.71, 0.00, 0.00, 0.00
592.0, -41379.16, -5167.70, -9666.37, -6939.03, -4738.88, -2916.84, -21323.47, -39857.18, 0.00, 0.00, 0.00
596.0, -41926.02, -5075.66, -9971.90, -7389.35, -4832.83, -2702.64, -21100.40, -40002.49, 0.00, 0.00, 0.00
600.0, -42509.30, -4946.02, -10397.83, -7742.89, -4843.56, -2650.51, -21062.03, -40330.95, 0.00, 0.00, 0.00
604.0, -42030.73, -4984.46, -10128.94, -7347.35, -4724.02, -2839.95, -21272.74, -40220.20, 0.00, 0.00, 0.00
608.0, -41398.74, -5097.94, -9668.85, -6947.73, -4686.02, -2911.90, -21337.33, -39881.41, 0.00, 0.00, 0.00
612.0, -41765.21, -5100.11, -9840.06, -7275.63, -4779.43, -2733.42, -21147.74, -39915.43, 0.00, 0.00, 0.00
616.0, -42468.94, -4974.09, -10335.63, -7739.29, -4826.41, -2628.43, -21054.34, -40276.16, 0.00, 0.00, 0.00
620.0, -42150.65, -4986.50, -10185.02, -7443.89, -4723.28, -2807.36, -21252.04, -40245.88, 0.00, 0.00, 0.00
624.0, -41429.79, -5107.22, -9693.24, -6969.83, -4667.56, -2917.10, -21359.48, -39908.19, 0.00, 0.00, 0.00
628.0, -41644.99, -5083.84, -9767.44, -7213.00, -4746.68, -2755.81, -21180.98, -39888.23, 0.00, 0.00, 0.00
632.0, -42410.38, -4945.59, -10279.50, -7741.62, -4812.71, -2619.00, -21049.64, -40237.65, 0.00, 0.00, 0.00
636.0, -42290.89, -4939.06, -10261.10, -7584.06, -4725.85, -2763.30, -21211.85, -40304.08, 0.00, 0.00, 0.00
640.0, -41516.53, -5061.71, -9745.05, -7053.52, -4645.79, -2924.26, -21373.05, -39968.61, 0.00, 0.00, 0.00
644.0, -41529.59, -5062.63, -9678.89, -7148.91, -4713.18, -2815.47, -21253.09, -39846.18, 0.00, 0.00, 0.00
648.0, -42284.76, -4942.06, -10158.89, -7674.74, -4821.27, -2668.84, -21106.80, -40138.32, 0.00, 0.00, 0.00
652.0, -42372.67, -4885.29, -10291.23, -7663.72, -4771.85, -2746.29, -21202.55, -40307.17, 0.00, 0.00, 0.00
656.0, -41597.09, -5004.47, -9802.04, -7122.99, -4664.90, -2918.00, -21385.34, -40013.93, 0.00, 0.00, 0.00
660.0, -41421.92, -5049.24, -9636.33, -7106.27, -4703.41, -2827.88, -21283.69, -39842.99, 0.00, 0.00, 0.00
664.0, -42140.05, -4919.98, -10096.53, -7665.17, -4803.32, -2636.72, -21085.56, -40119.86, 0.00, 0.00, 0.00
668.0, -42371.91, -4862.22, -10319.06, -7767.54, -4773.26, -2705.92, -21174.23, -40330.84, 0.00, 0.00, 0.00
672.0, -41622.10, -4958.98, -9864.67, -7229.20, -4663.07, -2904.30, -21383.29, -40069.34, 0.00, 0.00, 0.00
676.0, -41247.15, -5011.55, -9580.67, -7068.83, -4683.34, -2866.43, -21335.79, -39827.86, 0.00, 0.00, 0.00
680.0, -41869.53, -4893.87, -9960.36, -7577.17, -4787.90, -2663.12, -21126.18, -40030.74, 0.00, 0.00, 0.00
684.0, -42288.89, -4789.84, -10299.26, -7819.24, -4782.67, -2670.52, -21151.28, -40308.53, 0.00, 0.00, 0.00
688.0, -41646.98, -4878.63, -9924.55, -7328.22, -4665.39, -2882.12, -21380.94, -40109.00, 0.00, 0.00, 0.00
692.0, -41116.39, -4979.34, -9531.95, -7019.70, -4653.28, -2901.30, -21385.23, -39802.04, 0.00, 0.00, 0.00
696.0, -41625.23, -4875.45, -9816.15, -7452.63, -4749.59, -2682.23, -21158.21, -39928.80, 0.00, 0.00, 0.00
700.0, -42208.83, -4765.21, -10244.41, -7817.68, -4777.66, -2638.44, -21128.01, -40254.53, 0.00, 0.00, 0.00
704.0, -41726.28, -4830.39, -9973.44, -7414.95, -4670.73, -2844.13, -21348.66, -40136.80, 0.00, 0.00, 0.00
708.0, -41077.12, -4961.66, -9506.02, -6996.70, -4642.99, -2918.06, -21418.51, -39795.67, 0.00, 0.00, 0.00
712.0, -41463.96, -4906.27, -9688.72, -7341.25, -4740.54, -2719.09, -21207.71, -39851.62, 0.00, 0.00, 0.00
716.0, -42221.39, -4754.22, -10198.01, -7831.65, -4787.05, -2604.25, -21100.18, -40222.81, 0.00, 0.00, 0.00
720.0, -41962.65, -4772.39, -10074.53, -7570.80, -4680.66, -2771.75, -21284.20, -40217.80, 0.00, 0.00, 0.00
724.0, -41217.04, -4918.86, -9558.54, -7070.95, -4613.71, -2916.99, -21426.87, -39859.66, 0.00, 0.00, 0.00
728.0, -41389.91, -4942.28, -9596.48, -7272.16, -4697.84, -2769.60, -21261.07, -39801.53, 0.00, 0.00, 0.00
732.0, -42191.13, -4813.96, -10118.86, -7819.76, -4771.69, -2607.80, -21102.86, -40155.87, 0.00, 0.00, 0.00
736.0, -42129.21, -4819.80, -10116.22, -7676.06, -4694.51, -2760.66, -21269.72, -40224.13, 0.00, 0.00, 0.00
740.0, -41390.49, -4954.02, -9606.80, -7144.53, -4614.38, -2914.94, -21423.30, -39896.66, 0.00, 0.00, 0.00
744.0, -41401.51, -5011.13, -9518.60, -7212.62, -4674.69, -2825.04, -21321.69, -39756.36, 0.00, 0.00, 0.00
748.0, -42206.95, -4905.34, -10005.13, -7748.48, -4783.61, -2658.25, -21155.97, -40048.11, 0.00, 0.00, 0.00
752.0, -42377.25, -4848.54, -10155.43, -7755.52, -4735.66, -2736.39, -21254.34, -40220.42, 0.00, 0.00, 0.00
756.0, -41663.63, -4952.86, -9686.26, -7234.41, -4630.12, -2904.52, -21427.97, -39949.70, 0.00, 0.00, 0.00
760.0, -41484.03, -5042.80, -9488.54, -7187.81, -4672.27, -2855.48, -21364.33, -39756.69, 0.00, 0.00, 0.00
764.0, -42223.20, -4959.65, -9920.29, -7720.25, -4787.83, -2677.18, -21180.76, -39998.56, 0.00, 0.00, 0.00
768.0, -42565.63, -4879.32, -10180.46, -7864.17, -4766.22, -2709.34, -21230.16, -40236.78, 0.00, 0.00, 0.00
772.0, -41896.67, -4957.88, -9753.50, -7356.09, -4652.00, -2908.43, -21440.42, -40002.80, 0.00, 0.00, 0.00
776.0, -41519.41, -4924.00, -9443.43, -7166.04, -4667.98, -2897.75, -21413.78, -39739.57, 0.00, 0.00, 0.00
780.0, -42128.54, -4625.76, -9789.80, -7645.64, -4767.31, -2694.26, -21198.53, -39907.86, 0.00, 0.00, 0.00
784.0, -42597.08, -4461.59, -10133.01, -7903.60, -4763.11, -2686.28, -21204.74, -40185.17, 0.00, 0.00, 0.00
788.0, -42007.02, -4526.47, -9776.85, -7433.56, -4650.64, -2888.58, -21418.65, -40004.43, 0.00, 0.00, 0.00
792.0, -41457.66, -4656.85, -9362.52, -7099.45, -4639.48, -2929.26, -21452.29, -39682.97, 0.00, 0.00, 0.00
796.0, -41944.84, -4641.00, -9610.38, -7492.08, -4745.90, -2738.07, -21245.64, -39771.15, 0.00, 0.00, 0.00
800.0, -42596.10, -4522.29, -10060.88, -7883.42, -4778.18, -2664.71, -21181.16, -40109.20, 0.00, 0.00, 0.00
804.0, -42184.25, -4568.27, -9826.09, -7514.23, -4671.45, -2861.00, -21392.00, -40023.77, 0.00, 0.00, 0.00
808.0, -41541.30, -4702.43, -9368.93, -7099.94, -4629.23, -2925.73, -21449.87, -39701.43, 0.00, 0.00, 0.00
812.0, -41898.30, -4686.07, -9528.53, -7428.69, -4707.79, -2735.03, -21247.43, -39744.91, 0.00, 0.00, 0.00
816.0, -42662.66, -4574.84, -10023.64, -7916.61, -4759.71, -2630.26, -21149.58, -40098.78, 0.00, 0.00, 0.00
820.0, -42448.29, -4602.92, -9916.71, -7671.92, -4665.35, -2797.68, -21335.39, -40104.32, 0.00, 0.00, 0.00
824.0, -41708.62, -4784.41, -9401.84, -7167.04, -4595.67, -2932.01, -21466.75, -39759.77, 0.00, 0.00, 0.00
828.0, -41863.99, -4830.01, -9416.54, -7352.02, -4665.43, -2795.09, -21314.09, -39697.50, 0.00, 0.00, 0.00
832.0, -42657.66, -4718.99, -9921.78, -7886.10, -4746.75, -2640.55, -21164.20, -40034.99, 0.00, 0.00, 0.00
836.0, -42641.23, -4689.89, -9964.00, -7792.65, -4672.23, -2758.23, -21302.33, -40149.92, 0.00, 0.00, 0.00
840.0, -41859.88, -4802.14, -9447.21, -7251.04, -4583.56, -2935.88, -21481.99, -39822.94, 0.00, 0.00, 0.00
844.0, -41798.21, -4826.23, -9334.63, -7298.51, -4639.86, -2850.32, -21382.84, -39670.07, 0.00, 0.00, 0.00
848.0, -42549.81, -4716.78, -9805.75, -7835.90, -4743.73, -2687.17, -21219.49, -39949.63, 0.00, 0.00, 0.00
852.0, -42693.37, -4682.98, -9954.93, -7844.66, -4702.20, -2772.06, -21323.83, -40109.62, 0.00, 0.00, 0.00
856.0, -41948.30, -4759.45, -9484.27, -7306.92, -4601.42, -2945.76, -21508.30, -39831.93, 0.00, 0.00, 0.00
860.0, -41717.88, -4821.25, -9272.51, -7234.05, -4634.92, -2888.34, -21441.11, -39632.64, 0.00, 0.00, 0.00
864.0, -42454.93, -4713.67, -9721.80, -7795.75, -4736.83, -2672.31, -21220.72, -39898.67, 0.00, 0.00, 0.00
868.0, -42808.30, -4628.31, -9995.95, -7964.33, -4706.92, -2712.18, -21281.59, -40144.27, 0.00, 0.00, 0.00
872.0, -42118.42, -4739.33, -9555.88, -7426.08, -4598.13, -2939.34, -21519.46, -39889.84, 0.00, 0.00, 0.00
876.0, -41729.01, -4845.84, -9240.37, -7219.12, -4625.72, -2933.64, -21497.06, -39634.71, 0.00, 0.00, 0.00
880.0, -42351.30, -4747.31, -9585.95, -7705.43, -4729.11, -2728.16, -21282.15, -39813.91, 0.00, 0.00, 0.00
884.0, -42870.18, -4631.04, -9956.00, -7991.66, -4736.54, -2710.53, -21278.77, -40105.58, 0.00, 0.00, 0.00
888.0, -42352.29, -4670.15, -9657.43, -7578.96, -4623.66, -2887.71, -21468.34, -39980.63, 0.00, 0.00, 0.00
892.0, -41789.42, -4772.86, -9238.33, -7240.20, -4600.30, -2942.07, -21513.31, -39668.82, 0.00, 0.00, 0.00
896.0, -42246.16, -4704.04, -9466.01, -7624.67, -4697.38, -2761.16, -21321.37, -39747.79, 0.00, 0.00, 0.00
900.0, -42882.65, -4574.93, -9898.85, -8003.98, -4738.68, -2711.91, -21279.60, -40052.38, 0.00, 0.00, 0.00
904.0, -42499.27, -4587.23, -9693.55, -7657.77, -4634.81, -2882.35, -21461.27, -39982.24, 0.00, 0.00, 0.00
908.0, -41813.12, -4689.19, -9214.53, -7213.29, -4583.94, -2975.64, -21546.01, -39645.45, 0.00, 0.00, 0.00
912.0, -42097.09, -4636.80, -9327.47, -7487.48, -4675.02, -2811.36, -21370.14, -39642.49, 0.00, 0.00, 0.00
916.0, -42857.37, -4472.41, -9835.28, -7992.34, -4736.45, -2671.79, -21239.16, -39997.28, 0.00, 0.00, 0.00
920.0, -42661.25, -4455.64, -9756.18, -7774.54, -4635.95, -2823.49, -21406.24, -40019.95, 0.00, 0.00, 0.00
924.0, -41886.68, -4530.79, -9228.83, -7247.04, -4558.95, -2964.85, -21545.92, -39664.40, 0.00, 0.00, 0.00
928.0, -41961.13, -4498.04, -9196.92, -7378.78, -4634.05, -2843.57, -21416.01, -39555.46, 0.00, 0.00, 0.00
932.0, -42751.53, -4326.78, -9712.08, -7928.81, -4722.74, -2665.83, -21240.95, -39891.36, 0.00, 0.00, 0.00
936.0, -42769.68, -4261.36, -9782.89, -7859.36, -4652.25, -2770.14, -21359.51, -40018.09, 0.00, 0.00, 0.00
940.0, -42006.13, -4365.92, -9286.43, -7328.00, -4554.88, -2938.83, -21532.48, -39713.17, 0.00, 0.00, 0.00
944.0, -41911.78, -4425.80, -9153.96, -7351.56, -4607.86, -2864.02, -21440.08, -39554.00, 0.00, 0.00, 0.00
948.0, -42658.79, -4315.88, -9613.69, -7893.63, -4713.20, -2690.75, -21265.20, -39828.04, 0.00, 0.00, 0.00
952.0, -42870.96, -4228.55, -9811.16, -7968.46, -4671.27, -2745.58, -21337.35, -40035.97, 0.00, 0.00, 0.00
956.0, -42115.22, -4345.54, -9326.56, -7408.40, -4562.30, -2959.15, -21561.43, -39746.61, 0.00, 0.00, 0.00
960.0, -41839.87, -4408.57, -9086.86, -7296.93, -4596.23, -2905.79, -21494.69, -39530.04, 0.00, 0.00, 0.00
964.0, -42537.25, -4310.00, -9508.50, -7832.30, -4707.52, -2709.17, -21291.76, -39770.32, 0.00, 0.00, 0.00
968.0, -42913.54, -4235.41, -9810.99, -8020.92, -4694.85, -2743.27, -21340.48, -40030.03, 0.00, 0.00, 0.00
972.0, -42251.01, -4330.25, -9409.93, -7509.52, -4587.56, -2949.33, -21556.45, -39812.70, 0.00, 0.00, 0.00
976.0, -41807.39, -4408.90, -9074.16, -7275.69, -4591.85, -2939.77, -21532.66, -39551.21, 0.00, 0.00, 0.00
980.0, -42360.49, -4341.85, -9388.27, -7730.57, -4698.63, -2766.63, -21350.10, -39698.44, 0.00, 0.00, 0.00
984.0, -42872.70, -4249.33, -9777.59, -8035.21, -4724.76, -2742.87, -21339.25, -39998.24, 0.00, 0.00, 0.00
988.0, -42328.70, -4314.04, -9485.12, -7614.17, -4618.32, -2936.55, -21551.08, -39872.14, 0.00, 0.00, 0.00
992.0, -41699.01, -4428.51, -9048.21, -7242.03, -4593.40, -2999.69, -21608.12, -39550.98, 0.00, 0.00, 0.00
996.0, -42097.36, -4367.22, -9254.31, -7600.91, -4684.52, -2806.91, -21402.71, -39615.36, 0.00, 0.00, 0.00
1000.0, -42766.08, -4215.96, -9723.14, -8026.98, -4717.98, -2708.23, -21313.57, -39960.94, 0.00, 0.00, 0.00
1004.0, -42410.02, -4229.89, -9540.93, -7702.28, -4611.14, -2872.31, -21492.99, -39914.98, 0.00, 0.00, 0.00
1008.0, -41703.26, -4345.07, -9053.55, -7244.24, -4553.41, -2969.81, -21583.65, -39581.56, 0.00, 0.00, 0.00
1012.0, -41942.60, -4334.88, -9138.98, -7497.22, -4641.79, -2822.33, -21423.97, -39563.91, 0.00, 0.00, 0.00
1016.0, -42686.51, -4204.97, -9636.78, -7994.66, -4711.68, -2693.65, -21301.44, -39903.27, 0.00, 0.00, 0.00
1020.0, -42517.31, -4190.10, -9583.18, -7791.75, -4623.26, -2841.71, -21465.27, -39943.84, 0.00, 0.00, 0.00
1024.0, -41747.89, -4300.14, -9067.81, -7263.76, -4547.89, -2980.69, -21606.18, -39611.18, 0.00, 0.00, 0.00
1028.0, -41816.58, -4282.75, -9044.23, -7401.47, -4612.80, -2850.94, -21463.66, -39529.82, 0.00, 0.00, 0.00
1032.0, -42606.38, -4132.66, -9558.43, -7959.17, -4696.30, -2674.81, -21290.13, -39866.14, 0.00, 0.00, 0.00
1036.0, -42641.61, -4076.78, -9642.59, -7903.60, -4621.80, -2775.95, -21413.22, -40000.61, 0.00, 0.00, 0.00
1040.0, -41850.78, -4169.05, -9128.54, -7341.74, -4521.51, -2957.65, -21597.39, -39681.77, 0.00, 0.00, 0.00
1044.0, -41712.33, -4195.96, -8970.36, -7336.04, -4568.58, -2878.08, -21505.64, -39511.02, 0.00, 0.00, 0.00
1048.0, -42439.01, -4083.53, -9416.50, -7863.61, -4670.15, -2701.86, -21325.64, -39766.08, 0.00, 0.00, 0.00
1052.0, -42671.63, -3997.07, -9628.59, -7944.32, -4627.97, -2740.35, -21377.92, -39975.38, 0.00, 0.00, 0.00
1056.0, -41940.27, -4083.86, -9173.13, -7411.37, -4508.86, -2929.44, -21574.73, -39718.13, 0.00, 0.00, 0.00
1060.0, -41614.14, -4164.55, -8900.89, -7265.93, -4533.51, -2905.17, -21537.60, -39475.21, 0.00, 0.00, 0.00
1064.0, -42302.22, -4049.55, -9314.80, -7804.60, -4641.81, -2694.99, -21317.57, -39708.77, 0.00, 0.00, 0.00
1068.0, -42721.16, -3971.28, -9636.55, -8027.99, -4628.62, -2713.70, -21355.33, -39983.96, 0.00, 0.00, 0.00
1072.0, -42076.35, -4066.21, -9247.34, -7528.20, -4523.64, -2928.17, -21584.32, -39773.45, 0.00, 0.00, 0.00
1076.0, -41596.98, -4159.61, -8890.50, -7267.58, -4525.87, -2941.96, -21587.00, -39492.60, 0.00, 0.00, 0.00
1080.0, -42123.29, -4110.26, -9177.16, -7700.24, -4634.21, -2766.27, -21401.19, -39611.76, 0.00, 0.00, 0.00
1084.0, -42690.94, -3995.62, -9588.92, -8040.28, -4656.09, -2717.12, -21367.51, -39925.54, 0.00, 0.00, 0.00
1088.0, -42194.97, -4050.94, -9314.58, -7635.49, -4545.45, -2908.07, -21571.94, -39808.52, 0.00, 0.00, 0.00
1092.0, -41570.87, -4155.64, -8875.45, -7256.58, -4516.55, -2968.80, -21627.41, -39488.04, 0.00, 0.00, 0.00
1096.0, -41945.77, -4105.32, -9059.94, -7601.81, -4617.11, -2800.20, -21448.15, -39535.52, 0.00, 0.00, 0.00
1100.0, -42614.89, -3983.01, -9526.29, -8032.70, -4666.46, -2709.28, -21364.22, -39863.30, 0.00, 0.00, 0.00
1104.0, -42301.61, -3993.85, -9389.77, -7751.70, -4571.31, -2856.58, -21528.91, -39849.85, 0.00, 0.00, 0.00
1108.0, -41566.44, -4116.70, -8894.12, -7273.79, -4513.78, -2979.26, -21650.44, -39506.17, 0.00, 0.00, 0.00
1112.0, -41777.91, -4092.69, -8969.02, -7510.77, -4598.42, -2820.95, -21479.11, -39476.18, 0.00, 0.00, 0.00
1116.0, -42537.13, -3956.95, -9474.59, -8026.89, -4662.40, -2685.23, -21347.59, -39811.70, 0.00, 0.00, 0.00
1120.0, -42387.11, -3959.68, -9429.44, -7832.27, -4572.99, -2837.98, -21518.07, -39845.78, 0.00, 0.00, 0.00
1124.0, -41587.79, -4096.27, -8894.83, -7267.60, -4502.11, -3004.01, -21682.46, -39485.88, 0.00, 0.00, 0.00
1128.0, -41639.06, -4078.30, -8868.52, -7402.20, -4570.42, -2860.04, -21520.93, -39404.94, 0.00, 0.00, 0.00
1132.0, -42425.06, -3944.23, -9372.13, -7963.39, -4653.79, -2698.91, -21359.82, -39727.57, 0.00, 0.00, 0.00
1136.0, -42491.76, -3893.49, -9470.59, -7922.93, -4587.90, -2794.21, -21473.25, -39862.73, 0.00, 0.00, 0.00
1140.0, -41716.64, -3995.62, -8970.89, -7369.39, -4492.19, -2973.39, -21656.47, -39554.96, 0.00, 0.00, 0.00
1144.0, -41557.84, -4019.63, -8803.52, -7349.81, -4538.48, -2888.85, -21558.44, -39380.29, 0.00, 0.00, 0.00
1148.0, -42293.68, -3887.97, -9255.05, -7898.68, -4633.20, -2692.85, -21361.88, -39643.99, 0.00, 0.00, 0.00
1152.0, -42545.58, -3819.94, -9470.81, -7991.26, -4592.55, -2747.19, -21432.17, -39845.38, 0.00, 0.00, 0.00
1156.0, -41815.44, -3933.37, -9011.75, -7444.72, -4485.46, -2956.67, -21650.48, -39577.83, 0.00, 0.00, 0.00
1160.0, -41464.41, -4011.91, -8725.16, -7272.70, -4514.54, -2934.54, -21616.39, -39330.78, 0.00, 0.00, 0.00
1164.0, -42114.20, -3913.66, -9109.32, -7774.76, -4626.12, -2736.35, -21412.03, -39535.07, 0.00, 0.00, 0.00
1168.0, -42572.74, -3811.60, -9463.64, -8028.23, -4619.86, -2722.87, -21413.53, -39831.12, 0.00, 0.00, 0.00
1172.0, -41955.92, -3890.14, -9097.52, -7548.61, -4500.79, -2928.59, -21632.96, -39648.62, 0.00, 0.00, 0.00
1176.0, -41429.05, -4002.66, -8705.58, -7237.03, -4500.39, -2966.84, -21662.04, -39342.98, 0.00, 0.00, 0.00
1180.0, -41948.12, -3933.39, -8991.70, -7666.85, -4609.22, -2770.32, -21452.73, -39470.43, 0.00, 0.00, 0.00
1184.0, -42567.38, -3790.45, -9436.46, -8052.57, -4630.01, -2696.65, -21386.60, -39819.56, 0.00, 0.00, 0.00
1188.0, -42105.52, -3841.55, -9181.63, -7667.34, -4520.24, -2896.43, -21602.94, -39726.02, 0.00, 0.00, 0.00
1192.0, -41448.00, -3963.63, -8716.15, -7250.50, -4496.08, -2985.95, -21686.44, -39394.73, 0.00, 0.00, 0.00
1196.0, -41813.72, -3908.47, -8893.71, -7591.19, -4596.57, -2800.45, -21486.42, -39449.20, 0.00, 0.00, 0.00
1200.0, -42514.18, -3801.74, -9371.30, -8045.22, -4645.16, -2711.98, -21406.40, -39789.41, 0.00, 0.00, 0.00
1204.0, -42206.04, -3846.40, -9222.31, -7741.35, -4552.54, -2885.79, -21598.31, -39757.07, 0.00, 0.00, 0.00
1208.0, -41470.66, -3956.37, -8728.00, -7252.56, -4495.36, -2991.92, -21699.27, -39429.28, 0.00, 0.00, 0.00
1212.0, -41663.11, -3914.95, -8794.72, -7487.14, -4568.76, -2831.05, -21520.93, -39413.19, 0.00, 0.00, 0.00
1216.0, -42431.37, -3778.81, -9303.15, -8021.91, -4635.80, -2690.79, -21385.99, -39759.89, 0.00, 0.00, 0.00
1220.0, -42322.56, -3788.33, -9292.00, -7863.63, -4552.09, -2835.36, -21547.04, -39827.68, 0.00, 0.00, 0.00
1224.0, -41537.45, -3925.21, -8781.06, -7324.31, -4470.53, -2992.00, -21698.49, -39507.60, 0.00, 0.00, 0.00
1228.0, -41538.32, -3935.52, -8716.26, -7421.81, -4530.90, -2881.54, -21573.79, -39408.27, 0.00, 0.00, 0.00
1232.0, -42305.61, -3810.66, -9203.98, -7973.27, -4620.93, -2723.02, -21415.81, -39718.31, 0.00, 0.00, 0.00
1236.0, -42388.45, -3773.67, -9311.31, -7937.75, -4560.25, -2809.73, -21521.49, -39856.38, 0.00, 0.00, 0.00
1240.0, -41615.86, -3886.03, -8821.14, -7383.76, -4458.32, -2984.78, -21701.33, -39568.42, 0.00, 0.00, 0.00
1244.0, -41434.48, -3909.61, -8649.59, -7354.86, -4502.24, -2900.12, -21598.65, -39406.75, 0.00, 0.00, 0.00
1248.0, -42180.89, -3775.90, -9116.54, -7930.44, -4597.15, -2693.43, -21387.18, -39695.89, 0.00, 0.00, 0.00
1252.0, -42453.47, -3717.52, -9347.16, -8045.06, -4561.79, -2757.31, -21471.89, -39909.80, 0.00, 0.00, 0.00
1256.0, -41707.44, -3834.31, -8882.96, -7480.52, -4455.66, -2981.86, -21708.10, -39637.26, 0.00, 0.00, 0.00
1260.0, -41312.15, -3912.09, -8574.00, -7277.68, -4488.45, -2971.57, -21685.28, -39381.94, 0.00, 0.00, 0.00
1264.0, -41965.60, -3782.65, -8967.65, -7805.21, -4597.53, -2742.07, -21449.43, -39604.54, 0.00, 0.00, 0.00
1268.0, -42427.88, -3689.65, -9319.25, -8068.87, -4590.31, -2744.39, -21467.51, -39889.64, 0.00, 0.00, 0.00
1272.0, -41822.68, -3778.50, -8971.36, -7602.77, -4481.41, -2949.56, -21683.25, -39721.20, 0.00, 0.00, 0.00
1276.0, -41272.72, -3886.86, -8580.30, -7294.78, -4478.86, -2990.93, -21712.42, -39432.86, 0.00, 0.00, 0.00
1280.0, -41759.92, -3803.28, -8853.01, -7729.72, -4580.92, -2797.37, -21508.68, -39562.50, 0.00, 0.00, 0.00
1284.0, -42352.51, -3694.61, -9281.14, -8103.89, -4609.98, -2744.17, -21465.74, -39878.68, 0.00, 0.00, 0.00
1288.0, -41898.50, -3764.35, -9043.72, -7730.84, -4497.77, -2925.20, -21663.96, -39790.64, 0.00, 0.00, 0.00
1292.0, -41202.45, -3909.52, -8567.71, -7290.20, -4467.91, -3027.45, -21754.37, -39451.10, 0.00, 0.00, 0.00
1296.0, -41532.00, -3842.31, -8737.52, -7624.58, -4565.61, -2835.86, -21544.00, -39505.95, 0.00, 0.00, 0.00
1300.0, -42250.54, -3688.73, -9241.64, -8123.65, -4607.05, -2711.65, -21428.84, -39869.74, 0.00, 0.00, 0.00
1304.0, -41957.35, -3729.14, -9113.16, -7846.89, -4510.16, -2899.07, -21636.00, -39849.25, 0.00, 0.00, 0.00
1308.0, -41179.27, -3865.94, -8594.27, -7326.83, -4453.94, -3031.90, -21768.36, -39500.29, 0.00, 0.00, 0.00
1312.0, -41328.29, -3838.22, -8634.19, -7533.68, -4531.17, -2876.92, -21602.67, -39464.91, 0.00, 0.00, 0.00
1316.0, -42074.65, -3712.40, -9126.46, -8052.86, -4604.84, -2743.59, -21472.56, -39785.25, 0.00, 0.00, 0.00
1320.0, -41983.77, -3706.14, -9126.64, -7898.55, -4524.55, -2868.82, -21611.25, -39852.24, 0.00, 0.00, 0.00
1324.0, -41186.75, -3825.23, -8611.21, -7342.75, -4437.60, -3033.62, -21777.10, -39531.94, 0.00, 0.00, 0.00
1328.0, -41142.25, -3844.23, -8522.76, -7403.72, -4503.23, -2931.68, -21665.50, -39413.90, 0.00, 0.00, 0.00
1332.0, -41911.73, -3702.43, -9012.09, -7963.88, -4591.58, -2742.25, -21475.64, -39727.54, 0.00, 0.00, 0.00
1336.0, -42057.33, -3645.44, -9168.86, -7987.19, -4528.37, -2805.12, -21555.17, -39910.45, 0.00, 0.00, 0.00
1340.0, -41283.22, -3770.23, -8680.55, -7426.64, -4420.30, -3006.26, -21764.09, -39621.64, 0.00, 0.00, 0.00
1344.0, -41040.08, -3836.41, -8465.63, -7343.71, -4465.12, -2965.27, -21706.92, -39421.30, 0.00, 0.00, 0.00
1348.0, -41748.03, -3718.12, -8902.21, -7883.71, -4571.78, -2766.45, -21502.24, -39670.68, 0.00, 0.00, 0.00
1352.0, -42076.84, -3638.62, -9174.54, -8039.59, -4543.37, -2799.27, -21554.10, -39911.14, 0.00, 0.00, 0.00
1356.0, -41384.93, -3746.78, -8756.34, -7517.58, -4437.13, -3002.71, -21767.38, -39682.53, 0.00, 0.00, 0.00
1360.0, -40975.13, -3831.89, -8442.01, -7306.38, -4457.63, -3004.50, -21759.85, -39426.60, 0.00, 0.00, 0.00
1364.0, -41567.74, -3741.39, -8783.63, -7774.58, -4569.30, -2815.14, -21564.67, -39590.55, 0.00, 0.00, 0.00
1368.0, -42076.55, -3631.38, -9167.68, -8065.69, -4578.31, -2786.01, -21554.72, -39894.44, 0.00, 0.00, 0.00
1372.0, -41513.69, -3708.69, -8847.47, -7617.12, -4471.18, -2987.69, -21771.47, -39744.93, 0.00, 0.00, 0.00
1376.0, -40949.76, -3806.79, -8442.30, -7282.18, -4456.85, -3033.27, -21802.70, -39446.69, 0.00, 0.00, 0.00
1380.0, -41414.70, -3727.96, -8689.26, -7681.15, -4559.20, -2842.99, -21598.58, -39546.40, 0.00, 0.00, 0.00
1384.0, -42062.20, -3583.79, -9149.35, -8092.54, -4583.81, -2756.31, -21526.21, -39886.95, 0.00, 0.00, 0.00
1388.0, -41641.39, -3636.72, -8927.33, -7726.55, -4473.25, -2945.83, -21731.08, -39799.96, 0.00, 0.00, 0.00
1392.0, -40963.04, -3747.43, -8465.52, -7297.44, -4435.97, -3035.72, -21812.80, -39481.05, 0.00, 0.00, 0.00
1396.0, -41271.76, -3695.97, -8607.03, -7606.88, -4526.59, -2867.55, -21634.83, -39510.86, 0.00, 0.00, 0.00
1400.0, -41988.64, -3575.79, -9087.68, -8080.36, -4581.39, -2757.96, -21530.07, -39834.36, 0.00, 0.00, 0.00
1404.0, -41769.08, -3582.63, -8997.40, -7845.04, -4483.40, -2898.71, -21684.72, -39847.86, 0.00, 0.00, 0.00
1408.0, -41008.97, -3715.84, -8483.65, -7332.71, -4414.58, -3043.10, -21825.05, -39513.64, 0.00, 0.00, 0.00
1412.0, -41130.16, -3707.89, -8494.78, -7507.79, -4495.54, -2914.94, -21681.73, -39452.97, 0.00, 0.00, 0.00
1416.0, -41902.90, -3562.13, -8995.10, -8044.79, -4570.42, -2757.33, -21521.18, -39777.03, 0.00, 0.00, 0.00
1420.0, -41861.04, -3547.04, -9020.09, -7921.59, -4486.17, -2873.74, -21651.96, -39858.30, 0.00, 0.00, 0.00
1424.0, -41076.38, -3670.11, -8510.14, -7368.25, -4393.28, -3034.34, -21816.80, -39541.29, 0.00, 0.00, 0.00
1428.0, -41014.31, -3699.30, -8404.21, -7416.06, -4450.75, -2940.08, -21709.33, -39411.29, 0.00, 0.00, 0.00
1432.0, -41779.68, -3571.36, -8880.33, -7970.88, -4544.60, -2756.71, -21523.25, -39702.31, 0.00, 0.00, 0.00
1436.0, -41927.94, -3529.43, -9024.94, -7977.31, -4492.07, -2842.56, -21629.13, -39851.53, 0.00, 0.00, 0.00
1440.0, -41171.66, -3639.80, -8547.82, -7418.21, -4391.02, -3022.69, -21816.24, -39569.40, 0.00, 0.00, 0.00
1444.0, -40931.34, -3683.54, -8337.11, -7338.32, -4431.19, -2968.71, -21749.01, -39384.38, 0.00, 0.00, 0.00
1448.0, -41647.00, -3563.83, -8772.19, -7887.39, -4539.64, -2768.40, -21543.08, -39639.97, 0.00, 0.00, 0.00
1452.0, -41984.42, -3509.42, -9036.32, -8039.52, -4521.09, -2822.35, -21615.57, -39864.80, 0.00, 0.00, 0.00
1456.0, -41308.79, -3606.92, -8625.78, -7517.43, -4419.21, -3020.44, -21821.05, -39641.51, 0.00, 0.00, 0.00
1460.0, -40903.11, -3662.82, -8321.33, -7316.98, -4429.00, -3001.64, -21786.51, -39416.59, 0.00, 0.00, 0.00
1464.0, -41497.04, -3559.22, -8664.18, -7806.50, -4527.12, -2807.02, -21587.13, -39599.64, 0.00, 0.00, 0.00
1468.0, -41988.11, -3470.26, -9020.18, -8077.47, -4527.77, -2798.24, -21594.11, -39863.93, 0.00, 0.00, 0.00
1472.0, -41439.95, -3543.80, -8706.52, -7631.73, -4423.77, -2990.64, -21797.04, -39716.23, 0.00, 0.00, 0.00
1476.0, -40870.97, -3643.56, -8304.83, -7297.17, -4418.16, -3039.93, -21835.62, -39430.31, 0.00, 0.00, 0.00
1480.0, -41317.76, -3574.60, -8542.61, -7693.38, -4521.76, -2858.50, -21645.47, -39528.52, 0.00, 0.00, 0.00
1484.0, -41965.13, -3445.21, -8995.03, -8107.74, -4549.16, -2776.49, -21574.73, -39855.75, 0.00, 0.00, 0.00
1488.0, -41555.65, -3507.12, -8772.70, -7736.09, -4444.22, -2980.58, -21792.37, -39762.12, 0.00, 0.00, 0.00
1492.0, -40863.37, -3612.15, -8302.31, -7287.29, -4410.25, -3067.69, -21873.01, -39443.94, 0.00, 0.00, 0.00
1496.0, -41159.20, -3554.08, -8438.16, -7589.78, -4498.85, -2889.66, -21681.44, -39478.86, 0.00, 0.00, 0.00
1500.0, -41928.99, -3412.19, -8958.49, -8120.63, -4554.06, -2748.77, -21549.67, -39845.63, 0.00, 0.00, 0.00
1504.0, -41724.63, -3466.20, -8873.96, -7890.99, -4464.40, -2934.14, -21753.30, -39857.25, 0.00, 0.00, 0.00
1508.0, -40951.70, -3607.15, -8355.22, -7356.85, -4405.64, -3090.60, -21908.87, -39518.57, 0.00, 0.00, 0.00
1512.0, -41054.10, -3586.65, -8357.45, -7520.53, -4484.12, -2958.83, -21759.76, -39462.72, 0.00, 0.00, 0.00
1516.0, -41835.80, -3438.39, -8861.17, -8070.05, -4559.20, -2793.77, -21597.42, -39791.36, 0.00, 0.00, 0.00
1520.0, -41830.26, -3433.99, -8907.59, -7969.65, -4487.87, -2921.42, -21747.35, -39884.96, 0.00, 0.00, 0.00
1524.0, -41064.54, -3550.66, -8414.51, -7424.78, -4403.74, -3083.80, -21912.42, -39585.88, 0.00, 0.00, 0.00
1528.0, -40978.39, -3565.35, -8295.65, -7455.85, -4453.16, -2997.08, -21814.25, -39449.22, 0.00, 0.00, 0.00
1532.0, -41726.70, -3441.68, -8757.44, -7997.03, -4547.78, -2819.25, -21635.13, -39717.73, 0.00, 0.00, 0.00
1536.0, -41941.95, -3371.45, -8953.95, -8061.25, -4500.28, -2870.95, -21705.67, -39906.96, 0.00, 0.00, 0.00
1540.0, -41204.61, -3478.56, -8492.23, -7514.34, -4392.79, -3071.60, -21916.40, -39632.86, 0.00, 0.00, 0.00
1544.0, -40926.64, -3531.13, -8258.43, -7398.49, -4431.37, -3033.09, -21863.29, -39423.71, 0.00, 0.00, 0.00
1548.0, -41610.07, -3414.45, -8668.01, -7918.44, -4534.59, -2840.55, -21665.08, -39644.44, 0.00, 0.00, 0.00
1552.0, -41989.96, -3338.28, -8959.41, -8094.30, -4515.86, -2860.58, -21696.61, -39875.04, 0.00, 0.00, 0.00
1556.0, -41344.71, -3421.02, -8570.40, -7590.36, -4397.06, -3048.02, -21891.34, -39665.94, 0.00, 0.00, 0.00
1560.0, -40893.92, -3503.23, -8231.95, -7343.89, -4402.22, -3054.01, -21884.46, -39406.32, 0.00, 0.00, 0.00
1564.0, -41465.59, -3407.41, -8553.45, -7808.72, -4508.26, -2859.73, -21679.98, -39564.08, 0.00, 0.00, 0.00
1568.0, -42020.79, -3289.89, -8947.60, -8134.25, -4512.48, -2816.79, -21646.84, -39861.50, 0.00, 0.00, 0.00
1572.0, -41504.48, -3360.27, -8650.79, -7707.69, -4397.46, -3008.08, -21851.80, -39723.86, 0.00, 0.00, 0.00
1576.0, -40903.98, -3458.71, -8229.80, -7345.21, -4381.46, -3060.87, -21893.53, -39427.11, 0.00, 0.00, 0.00
1580.0, -41308.77, -3391.34, -8432.78, -7710.55, -4474.06, -2886.41, -21706.14, -39497.41, 0.00, 0.00, 0.00
1584.0, -41981.43, -3267.11, -8890.23, -8136.71, -4508.97, -2799.67, -21627.01, -39817.75, 0.00, 0.00, 0.00
1588.0, -41611.44, -3329.47, -8692.41, -7789.16, -4400.81, -2994.53, -21835.04, -39738.45, 0.00, 0.00, 0.00
1592.0, -40885.23, -3455.15, -8199.27, -7305.04, -4357.20, -3102.49, -21932.38, -39397.79, 0.00, 0.00, 0.00
1596.0, -41122.94, -3419.75, -8292.92, -7557.37, -4447.33, -2949.18, -21763.15, -39390.75, 0.00, 0.00, 0.00
1600.0, -41883.99, -3272.03, -8798.45, -8070.07, -4509.93, -2799.04, -21617.87, -39726.96, 0.00, 0.00, 0.00
1604.0, -41728.74, -3291.27, -8749.72, -7871.70, -4421.38, -2946.88, -21784.12, -39756.53, 0.00, 0.00, 0.00
1608.0, -40957.52, -3425.02, -8243.57, -7342.86, -4350.48, -3094.00, -21932.56, -39429.91, 0.00, 0.00, 0.00
1612.0, -41020.64, -3411.99, -8226.29, -7485.55, -4420.64, -2968.27, -21794.18, -39361.40, 0.00, 0.00, 0.00
1616.0, -41786.20, -3287.03, -8712.40, -8020.59, -4507.10, -2818.73, -21645.14, -39661.89, 0.00, 0.00, 0.00
1620.0, -41837.70, -3262.68, -8805.36, -7970.79, -4444.89, -2909.48, -21751.53, -39789.48, 0.00, 0.00, 0.00
1624.0, -41067.73, -3382.20, -8316.84, -7428.36, -4351.42, -3082.66, -21926.50, -39495.91, 0.00, 0.00, 0.00
1628.0, -40925.55, -3406.67, -8169.36, -7429.70, -4401.06, -3005.08, -21832.76, -39341.28, 0.00, 0.00, 0.00
1632.0, -41665.84, -3276.41, -8629.96, -7986.19, -4496.34, -2815.36, -21639.73, -39612.57, 0.00, 0.00, 0.00
1636.0, -41906.52, -3224.89, -8839.94, -8075.39, -4450.19, -2875.64, -21721.69, -39808.21, 0.00, 0.00, 0.00
1640.0, -41162.57, -3352.96, -8372.49, -7515.08, -4344.42, -3087.98, -21945.30, -39530.54, 0.00, 0.00, 0.00
1644.0, -40837.46, -3411.46, -8109.68, -7364.32, -4382.64, -3055.68, -21901.38, -39309.95, 0.00, 0.00, 0.00
1648.0, -41507.55, -3289.48, -8508.19, -7885.40, -4489.28, -2852.84, -21693.75, -39532.10, 0.00, 0.00, 0.00
1652.0, -41933.41, -3191.90, -8828.13, -8105.90, -4473.10, -2845.56, -21702.85, -39793.10, 0.00, 0.00, 0.00
1656.0, -41332.57, -3267.51, -8477.84, -7642.96, -4355.80, -3024.88, -21896.42, -39625.75, 0.00, 0.00, 0.00
1660.0, -40847.63, -3360.85, -8123.76, -7380.01, -4350.97, -3052.26, -21910.23, -39366.18, 0.00, 0.00, 0.00
1664.0, -41360.67, -3292.39, -8401.24, -7805.81, -4457.56, -2881.12, -21727.44, -39488.45, 0.00, 0.00, 0.00
1668.0, -41941.48, -3173.48, -8815.13, -8157.67, -4473.52, -2824.95, -21682.06, -39799.96, 0.00, 0.00, 0.00
1672.0, -41443.89, -3252.34, -8533.87, -7737.84, -4360.47, -3021.31, -21894.70, -39666.61, 0.00, 0.00, 0.00
1676.0, -40820.21, -3355.91, -8102.71, -7354.77, -4334.61, -3077.21, -21944.88, -39366.45, 0.00, 0.00, 0.00
1680.0, -41183.40, -3302.74, -8279.09, -7689.16, -4432.35, -2918.15, -21776.66, -39416.18, 0.00, 0.00, 0.00
1684.0, -41866.58, -3176.27, -8742.37, -8124.50, -4480.70, -2820.81, -21689.42, -39734.45, 0.00, 0.00, 0.00
1688.0, -41556.74, -3216.46, -8591.81, -7824.94, -4382.77, -2983.56, -21872.14, -39698.64, 0.00, 0.00, 0.00
1692.0, -40828.01, -3335.60, -8104.72, -7341.88, -4323.32, -3093.28, -21976.77, -39374.86, 0.00, 0.00, 0.00
1696.0, -41008.70, -3298.09, -8158.39, -7554.22, -4399.43, -2948.73, -21821.09, -39339.83, 0.00, 0.00, 0.00
1700.0, -41774.83, -3145.14, -8664.85, -8080.67, -4468.87, -2795.11, -21671.07, -39679.06, 0.00, 0.00, 0.00
1704.0, -41659.54, -3148.42, -8644.40, -7912.96, -4387.18, -2934.29, -21826.16, -39732.68, 0.00, 0.00, 0.00
1708.0, -40885.79, -3267.40, -8141.00, -7378.96, -4312.52, -3087.63, -21981.82, -39417.73, 0.00, 0.00, 0.00
1712.0, -40883.26, -3280.97, -8076.38, -7466.18, -4383.87, -2995.31, -21876.19, -39310.50, 0.00, 0.00, 0.00
1716.0, -41650.48, -3143.97, -8566.66, -8011.85, -4482.69, -2825.69, -21702.43, -39613.01, 0.00, 0.00, 0.00
1720.0, -41745.50, -3123.66, -8687.83, -7993.74, -4425.29, -2916.86, -21810.41, -39761.02, 0.00, 0.00, 0.00
1724.0, -40975.30, -3257.01, -8201.21, -7440.31, -4330.18, -3099.65, -21999.90, -39468.17, 0.00, 0.00, 0.00
1728.0, -40808.07, -3275.29, -8042.16, -7417.65, -4380.09, -3019.16, -21908.44, -39311.49, 0.00, 0.00, 0.00
1732.0, -41535.93, -3154.50, -8490.53, -7963.14, -4483.92, -2836.26, -21723.91, -39570.50, 0.00, 0.00, 0.00
1736.0, -41818.13, -3100.92, -8728.07, -8079.82, -4451.15, -2881.30, -21787.29, -39780.40, 0.00, 0.00, 0.00
1740.0, -41104.12, -3211.70, -8287.09, -7543.31, -4341.16, -3085.90, -22000.46, -39528.81, 0.00, 0.00, 0.00
1744.0, -40731.49, -3276.90, -7995.82, -7357.66, -4368.22, -3073.74, -21973.04, -39287.30, 0.00, 0.00, 0.00
1748.0, -41375.85, -3156.36, -8377.25, -7867.01, -4471.51, -2866.30, -21755.80, -39492.98, 0.00, 0.00, 0.00
1752.0, -41836.41, -3069.03, -8719.75, -8115.83, -4459.37, -2863.01, -21766.71, -39761.43, 0.00, 0.00, 0.00
1756.0, -41249.85, -3143.97, -8379.51, -7656.08, -4343.48, -3045.45, -21962.40, -39594.80, 0.00, 0.00, 0.00
1760.0, -40750.56, -3220.35, -8025.26, -7386.33, -4332.42, -3061.61, -21966.31, -39339.07, 0.00, 0.00, 0.00
1764.0, -41241.80, -3150.34, -8288.70, -7803.40, -4429.04, -2897.05, -21793.98, -39446.71, 0.00, 0.00, 0.00
1768.0, -41849.91, -3032.51, -8718.57, -8175.75, -4454.05, -2836.61, -21740.51, -39756.24, 0.00, 0.00, 0.00
1772.0, -41410.76, -3099.43, -8478.51, -7801.45, -4341.27, -3028.35, -21943.98, -39659.41, 0.00, 0.00, 0.00
1776.0, -40754.34, -3223.61, -8021.97, -7385.37, -4307.09, -3117.31, -22022.84, -39337.77, 0.00, 0.00, 0.00
1780.0, -41090.20, -3166.48, -8179.44, -7705.63, -4401.33, -2948.33, -21841.92, -39373.11, 0.00, 0.00, 0.00
1784.0, -41818.91, -3028.95, -8673.44, -8191.04, -4454.90, -2831.03, -21733.25, -39720.32, 0.00, 0.00, 0.00
1788.0, -41538.01, -3084.09, -8535.84, -7908.63, -4359.95, -3019.61, -21940.03, -39690.24, 0.00, 0.00, 0.00
1792.0, -40784.20, -3220.10, -8029.62, -7395.81, -4313.86, -3150.41, -22064.32, -39346.76, 0.00, 0.00, 0.00
1796.0, -40962.39, -3173.23, -8090.59, -7615.51, -4397.86, -2995.42, -21892.33, -39324.59, 0.00, 0.00, 0.00
1800.0, -41750.20, -3020.37, -8613.29, -8167.51, -4469.81, -2843.07, -21740.71, -39670.30, 0.00, 0.00, 0.00
1804.0, -41674.36, -3036.24, -8619.03, -8027.96, -4392.16, -2991.11, -21908.35, -39736.44, 0.00, 0.00, 0.00
1808.0, -40894.35, -3162.66, -8115.31, -7484.44, -4315.27, -3150.77, -22070.11, -39416.27, 0.00, 0.00, 0.00
1812.0, -40863.70, -3169.95, -8033.55, -7558.53, -4383.83, -3060.58, -21965.60, -39298.79, 0.00, 0.00, 0.00
1816.0, -41620.18, -3036.62, -8507.77, -8101.66, -4479.49, -2884.94, -21789.51, -39585.18, 0.00, 0.00, 0.00
1820.0, -41737.52, -3003.85, -8638.99, -8092.74, -4424.55, -2968.40, -21895.97, -39725.66, 0.00, 0.00, 0.00
1824.0, -40967.75, -3124.24, -8152.31, -7530.93, -4329.15, -3156.38, -22089.42, -39428.86, 0.00, 0.00, 0.00
1828.0, -40745.57, -3154.59, -7952.01, -7459.60, -4373.14, -3099.09, -22019.80, -39239.74, 0.00, 0.00, 0.00
1832.0, -41446.77, -3030.72, -8377.08, -7984.04, -4479.20, -2910.24, -21824.82, -39475.73, 0.00, 0.00, 0.00
1836.0, -41816.58, -2907.29, -8683.81, -8187.20, -4443.50, -2884.81, -21813.60, -39758.07, 0.00, 0.00, 0.00
1840.0, -41116.08, -3033.53, -8250.50, -7663.99, -4311.94, -3120.59, -22061.80, -39515.96, 0.00, 0.00, 0.00
1844.0, -40698.70, -3122.45, -7928.34, -7440.94, -4336.26, -3123.66, -22047.58, -39249.93, 0.00, 0.00, 0.00
1848.0, -41325.85, -3002.64, -8300.57, -7947.54, -4444.11, -2916.39, -21833.90, -39446.96, 0.00, 0.00, 0.00
1852.0, -41828.20, -2897.39, -8669.93, -8233.73, -4441.65, -2892.65, -21824.69, -39730.00, 0.00, 0.00, 0.00
1856.0, -41259.60, -2988.58, -8335.90, -7778.45, -4327.72, -3096.77, -22040.45, -39559.68, 0.00, 0.00, 0.00
1860.0, -40696.63, -3104.46, -7926.08, -7437.59, -4331.25, -3158.57, -22094.52, -39248.61, 0.00, 0.00, 0.00
1864.0, -41150.61, -3031.66, -8158.57, -7816.49, -4442.10, -2983.60, -21907.53, -39326.53, 0.00, 0.00, 0.00
1868.0, -41792.66, -2893.95, -8606.54, -8209.26, -4472.74, -2897.17, -21829.65, -39650.41, 0.00, 0.00, 0.00
1872.0, -41379.87, -2952.37, -8383.33, -7839.45, -4360.67, -3077.75, -22028.69, -39563.37, 0.00, 0.00, 0.00
1876.0, -40704.22, -3065.59, -7921.23, -7404.71, -4320.03, -3163.49, -22111.19, -39241.82, 0.00, 0.00, 0.00
1880.0, -41015.32, -3007.02, -8065.38, -7707.86, -4408.46, -2993.81, -21930.10, -39267.77, 0.00, 0.00, 0.00
1884.0, -41734.35, -2880.65, -8547.80, -8177.70, -4458.55, -2887.40, -21828.89, -39587.71, 0.00, 0.00, 0.00
1888.0, -41501.91, -2906.04, -8448.27, -7925.79, -4363.13, -3043.03, -22000.06, -39580.04, 0.00, 0.00, 0.00
1892.0, -40746.94, -3032.13, -7947.59, -7413.34, -4300.77, -3171.73, -22125.12, -39245.48, 0.00, 0.00, 0.00
1896.0, -40883.33, -3001.88, -7977.99, -7605.00, -4378.48, -3029.22, -21968.84, -39200.53, 0.00, 0.00, 0.00
1900.0, -41642.62, -2872.78, -8466.46, -8126.33, -4451.93, -2885.07, -21829.00, -39508.18, 0.00, 0.00, 0.00
1904.0, -41594.29, -2878.59, -8484.30, -7990.57, -4379.69, -3011.16, -21976.75, -39573.74, 0.00, 0.00, 0.00
1908.0, -40815.78, -2997.10, -7983.64, -7439.15, -4299.40, -3167.49, -22134.39, -39256.95, 0.00, 0.00, 0.00
1912.0, -40755.19, -3001.08, -7883.64, -7488.88, -4360.29, -3075.69, -22026.97, -39130.62, 0.00, 0.00, 0.00
1916.0, -41505.71, -2865.29, -8347.50, -8025.44, -4449.25, -2899.67, -21850.21, -39404.16, 0.00, 0.00, 0.00
1920.0, -41682.58, -2810.73, -8518.90, -8062.16, -4399.23, -2960.13, -21924.42, -39581.16, 0.00, 0.00, 0.00
1924.0, -40936.79, -2928.66, -8051.86, -7520.09, -4293.46, -3153.52, -22123.17, -39309.90, 0.00, 0.00, 0.00
1928.0, -40676.22, -2982.71, -7827.33, -7419.80, -4333.53, -3115.81, -22071.56, -39106.68, 0.00, 0.00, 0.00
1932.0, -41388.77, -2844.53, -8262.14, -7966.18, -4437.85, -2899.49, -21848.96, -39362.80, 0.00, 0.00, 0.00
1936.0, -41772.44, -2751.28, -8566.80, -8170.50, -4405.48, -2907.25, -21872.77, -39632.64, 0.00, 0.00, 0.00
1940.0, -41094.66, -2865.40, -8148.46, -7652.79, -4289.46, -3123.86, -22099.08, -39401.18, 0.00, 0.00, 0.00
1944.0, -40667.75, -2927.27, -7824.21, -7434.95, -4305.19, -3117.20, -22079.88, -39151.02, 0.00, 0.00, 0.00
1948.0, -41242.14, -2834.11, -8149.02, -7901.41, -4409.64, -2939.05, -21893.38, -39309.18, 0.00, 0.00, 0.00
1952.0, -41740.79, -2746.52, -8507.23, -8179.11, -4423.54, -2927.39, -21894.96, -39579.60, 0.00, 0.00, 0.00
1956.0, -41201.10, -2820.61, -8194.62, -7741.06, -4320.64, -3116.48, -22095.08, -39434.22, 0.00, 0.00, 0.00
1960.0, -40642.27, -2903.45, -7800.80, -7419.19, -4304.88, -3149.09, -22117.61, -39159.94, 0.00, 0.00, 0.00
1964.0, -41084.72, -2833.22, -8033.60, -7812.92, -4399.92, -2976.45, -21937.21, -39255.63, 0.00, 0.00, 0.00
1968.0, -41738.13, -2708.14, -8487.05, -8227.61, -4433.18, -2891.58, -21865.39, -39582.01, 0.00, 0.00, 0.00
1972.0, -41364.52, -2759.52, -8288.16, -7893.12, -4323.19, -3069.05, -22059.36, -39519.25, 0.00, 0.00, 0.00
1976.0, -40667.19, -2886.93, -7807.78, -7439.35, -4281.92, -3172.87, -22154.78, -39189.85, 0.00, 0.00, 0.00
1980.0, -40930.76, -2845.96, -7914.69, -7709.38, -4372.56, -3022.20, -21993.20, -39188.51, 0.00, 0.00, 0.00
1984.0, -41650.15, -2712.52, -8391.40, -8183.06, -4433.49, -2904.74, -21882.07, -39497.52, 0.00, 0.00, 0.00
1988.0, -41451.04, -2730.31, -8315.99, -7955.99, -4342.77, -3051.04, -22045.70, -39503.40, 0.00, 0.00, 0.00
1992.0, -40693.59, -2847.12, -7821.12, -7445.39, -4273.97, -3183.80, -22175.05, -39180.48, 0.00, 0.00, 0.00
1996.0, -40774.92, -2833.60, -7815.96, -7593.42, -4351.77, -3063.46, -22040.09, -39106.86, 0.00, 0.00, 0.00
2000.0, -41552.16, -2682.54, -8322.25, -8139.75, -4427.75, -2890.08, -21870.64, -39430.84, 0.00, 0.00, 0.00
2004.0, -41555.51, -2674.97, -8379.36, -8052.84, -4353.81, -3008.59, -22009.45, -39527.76, 0.00, 0.00, 0.00
2008.0, -40763.39, -2800.54, -7868.28, -7487.25, -4259.93, -3188.34, -22192.51, -39202.59, 0.00, 0.00, 0.00
2012.0, -40622.84, -2822.76, -7711.73, -7462.51, -4318.56, -3118.29, -22108.49, -39019.37, 0.00, 0.00, 0.00
2016.0, -41379.31, -2675.17, -8186.91, -8011.67, -4420.66, -2917.64, -21904.80, -39300.11, 0.00, 0.00, 0.00
2020.0, -41598.76, -2612.27, -8387.78, -8083.53, -4374.95, -2964.76, -21968.90, -39497.77, 0.00, 0.00, 0.00
2024.0, -40873.07, -2722.78, -7938.69, -7557.44, -4271.17, -3148.62, -22160.66, -39246.24, 0.00, 0.00, 0.00
2028.0, -40574.47, -2782.19, -7693.29, -7437.36, -4307.31, -3125.69, -22128.00, -39031.69, 0.00, 0.00, 0.00
2032.0, -41229.31, -2674.14, -8083.11, -7937.73, -4418.05, -2941.67, -21935.58, -39234.22, 0.00, 0.00, 0.00
2036.0, -41601.27, -2599.31, -8374.62, -8117.57, -4404.84, -2962.21, -21971.45, -39473.02, 0.00, 0.00, 0.00
2040.0, -40949.47, -2698.21, -7985.32, -7613.32, -4298.82, -3155.28, -22176.66, -39265.69, 0.00, 0.00, 0.00
2044.0, -40493.22, -2770.16, -7649.73, -7364.34, -4307.09, -3163.93, -22175.03, -39006.77, 0.00, 0.00, 0.00
2048.0, -41054.30, -2664.10, -7970.97, -7820.03, -4414.16, -2969.05, -21967.81, -39160.05, 0.00, 0.00, 0.00
2052.0, -41611.75, -2552.46, -8378.17, -8155.26, -4424.51, -2924.14, -21934.62, -39473.49, 0.00, 0.00, 0.00
2056.0, -41091.16, -2645.53, -8079.17, -7724.81, -4314.07, -3129.85, -22152.63, -39332.23, 0.00, 0.00, 0.00
2060.0, -40477.64, -2758.76, -7647.56, -7343.31, -4298.67, -3195.79, -22208.29, -39018.01, 0.00, 0.00, 0.00
2064.0, -40905.43, -2665.36, -7877.00, -7731.20, -4398.20, -2988.52, -21988.28, -39115.53, 0.00, 0.00, 0.00
2068.0, -41591.72, -2536.12, -8350.21, -8179.42, -4429.40, -2898.04, -21909.16, -39462.63, 0.00, 0.00, 0.00
2072.0, -41241.65, -2600.00, -8170.48, -7858.34, -4328.62, -3087.78, -22117.50, -39411.46, 0.00, 0.00, 0.00
2076.0, -40520.61, -2724.99, -7679.63, -7382.80, -4282.59, -3195.83, -22219.18, -39077.22, 0.00, 0.00, 0.00
2080.0, -40749.02, -2680.06, -7765.02, -7624.78, -4363.62, -3042.77, -22052.28, -39062.20, 0.00, 0.00, 0.00
2084.0, -41484.10, -2561.09, -8246.83, -8109.08, -4427.59, -2925.71, -21942.13, -39372.46, 0.00, 0.00, 0.00
2088.0, -41324.04, -2581.98, -8192.88, -7901.65, -4345.49, -3067.84, -22103.01, -39395.69, 0.00, 0.00, 0.00
2092.0, -40563.32, -2695.04, -7693.27, -7375.40, -4271.69, -3203.88, -22234.89, -39072.73, 0.00, 0.00, 0.00
2096.0, -40617.79, -2677.98, -7667.30, -7500.51, -4339.41, -3079.87, -22095.23, -38988.53, 0.00, 0.00, 0.00
2100.0, -41390.78, -2554.02, -8156.38, -8034.65, -4425.38, -2925.11, -21943.76, -39290.63, 0.00, 0.00, 0.00
2104.0, -41467.00, -2516.85, -8259.98, -7998.26, -4362.30, -3008.19, -22045.23, -39428.95, 0.00, 0.00, 0.00
2108.0, -40707.91, -2633.68, -7769.62, -7455.00, -4260.04, -3180.94, -22222.42, -39133.01, 0.00, 0.00, 0.00
2112.0, -40570.29, -2650.60, -7617.23, -7443.82, -4302.33, -3096.50, -22124.78, -38973.42, 0.00, 0.00, 0.00
2116.0, -41318.32, -2515.29, -8078.32, -7991.24, -4394.64, -2906.91, -21928.09, -39241.70, 0.00, 0.00, 0.00
2120.0, -41593.44, -2444.86, -8314.00, -8110.62, -4348.69, -2945.00, -21979.68, -39466.30, 0.00, 0.00, 0.00
2124.0, -40867.32, -2570.20, -7856.59, -7571.38, -4233.11, -3162.01, -22200.80, -39201.16, 0.00, 0.00, 0.00
2128.0, -40523.51, -2634.76, -7576.50, -7401.94, -4259.66, -3146.70, -22168.17, -38957.77, 0.00, 0.00, 0.00
2132.0, -41175.09, -2529.66, -7959.32, -7897.03, -4369.18, -2964.87, -21979.50, -39152.34, 0.00, 0.00, 0.00
2136.0, -41607.97, -2450.47, -8284.65, -8116.75, -4365.72, -2970.97, -21999.90, -39408.07, 0.00, 0.00, 0.00
2140.0, -40978.99, -2546.85, -7906.62, -7616.07, -4256.91, -3179.40, -22220.96, -39200.64, 0.00, 0.00, 0.00
2144.0, -40483.79, -2619.51, -7547.16, -7330.19, -4259.21, -3181.75, -22215.89, -38923.28, 0.00, 0.00, 0.00
2148.0, -41030.11, -2516.81, -7863.16, -7785.58, -4362.77, -2976.16, -22002.30, -39077.35, 0.00, 0.00, 0.00
2152.0, -41602.90, -2416.38, -8274.77, -8130.83, -4375.76, -2944.60, -21984.13, -39380.53, 0.00, 0.00, 0.00
2156.0, -41111.03, -2491.19, -8005.08, -7718.26, -4270.08, -3142.19, -22191.57, -39256.41, 0.00, 0.00, 0.00
2160.0, -40472.59, -2601.21, -7568.90, -7319.01, -4246.92, -3216.66, -22254.98, -38943.76, 0.00, 0.00, 0.00
2164.0, -40833.26, -2541.95, -7750.49, -7650.42, -4348.87, -3044.87, -22071.63, -38991.66, 0.00, 0.00, 0.00
2168.0, -41545.12, -2401.34, -8244.37, -8123.52, -4399.52, -2925.98, -21962.09, -39345.39, 0.00, 0.00, 0.00
2172.0, -41242.25, -2440.86, -8101.57, -7841.48, -4293.39, -3095.65, -22147.67, -39322.68, 0.00, 0.00, 0.00
2176.0, -40488.48, -2575.41, -7591.99, -7336.89, -4234.78, -3226.65, -22274.88, -38973.42, 0.00, 0.00, 0.00
2180.0, -40649.73, -2566.34, -7634.10, -7525.23, -4330.09, -3098.67, -22131.65, -38920.87, 0.00, 0.00, 0.00
2184.0, -41412.68, -2415.42, -8149.09, -8046.43, -4406.60, -2942.65, -21977.78, -39260.21, 0.00, 0.00, 0.00
2188.0, -41303.43, -2410.68, -8143.12, -7889.74, -4320.23, -3064.80, -22116.87, -39325.93, 0.00, 0.00, 0.00
2192.0, -40510.77, -2540.77, -7629.14, -7337.32, -4234.54, -3219.39, -22272.28, -38993.55, 0.00, 0.00, 0.00
2196.0, -40488.08, -2554.51, -7554.38, -7403.50, -4302.80, -3127.19, -22166.27, -38870.38, 0.00, 0.00, 0.00
2200.0, -41261.72, -2415.73, -8056.55, -7955.12, -4407.76, -2952.60, -21986.90, -39187.73, 0.00, 0.00, 0.00
2204.0, -41390.54, -2354.35, -8214.09, -7980.62, -4347.06, -3014.49, -22068.44, -39379.53, 0.00, 0.00, 0.00
2208.0, -40596.85, -2504.58, -7704.18, -7404.06, -4246.59, -3234.88, -22301.52, -39067.05, 0.00, 0.00, 0.00
2212.0, -40389.06, -2552.35, -7508.82, -7329.49, -4301.12, -3177.68, -22230.75, -38871.05, 0.00, 0.00, 0.00
2216.0, -41130.83, -2418.10, -7970.70, -7884.40, -4408.08, -2975.51, -22020.29, -39146.44, 0.00, 0.00, 0.00
2220.0, -41442.64, -2351.83, -8236.98, -8036.26, -4379.06, -3001.66, -22061.69, -39393.92, 0.00, 0.00, 0.00
2224.0, -40741.37, -2465.44, -7806.32, -7517.45, -4263.33, -3204.06, -22274.41, -39159.47, 0.00, 0.00, 0.00
2228.0, -40359.07, -2543.14, -7503.28, -7322.92, -4283.24, -3199.85, -22257.35, -38907.95, 0.00, 0.00, 0.00
2232.0, -40966.72, -2449.33, -7856.12, -7795.08, -4390.24, -3018.58, -22069.69, -39078.58, 0.00, 0.00, 0.00
2236.0, -41427.19, -2351.22, -8202.00, -8044.82, -4386.84, -2997.61, -22064.55, -39350.51, 0.00, 0.00, 0.00
2240.0, -40828.61, -2438.98, -7849.55, -7565.93, -4270.79, -3193.97, -22273.67, -39166.83, 0.00, 0.00, 0.00
2244.0, -40288.28, -2545.57, -7454.60, -7233.40, -4266.61, -3238.19, -22303.93, -38858.98, 0.00, 0.00, 0.00
2248.0, -40793.83, -2456.90, -7733.68, -7650.35, -4374.06, -3043.06, -22095.95, -38980.34, 0.00, 0.00, 0.00
2252.0, -41390.55, -2355.63, -8158.30, -8004.70, -4395.05, -2993.95, -22060.10, -39288.64, 0.00, 0.00, 0.00
2256.0, -40931.50, -2431.58, -7905.25, -7597.60, -4288.03, -3179.27, -22258.51, -39177.64, 0.00, 0.00, 0.00
2260.0, -40303.90, -2535.27, -7471.56, -7199.70, -4255.64, -3243.42, -22318.93, -38878.00, 0.00, 0.00, 0.00
2264.0, -40652.95, -2482.38, -7636.21, -7521.74, -4348.24, -3083.47, -22149.33, -38919.84, 0.00, 0.00, 0.00
2268.0, -41363.67, -2350.22, -8122.91, -7984.33, -4393.77, -2969.07, -22041.97, -39260.19, 0.00, 0.00, 0.00
2272.0, -41077.79, -2391.44, -7990.86, -7694.86, -4288.05, -3137.20, -22221.92, -39235.82, 0.00, 0.00, 0.00
2276.0, -40349.79, -2517.14, -7501.96, -7202.94, -4231.12, -3254.95, -22330.15, -38912.35, 0.00, 0.00, 0.00
2280.0, -40536.54, -2494.72, -7560.86, -7427.84, -4317.57, -3114.96, -22176.28, -38892.79, 0.00, 0.00, 0.00
2284.0, -41296.79, -2391.19, -8057.33, -7947.48, -4394.69, -2981.66, -22047.18, -39215.96, 0.00, 0.00, 0.00
2288.0, -41214.04, -2409.23, -8057.49, -7797.32, -4315.63, -3109.93, -22194.74, -39285.11, 0.00, 0.00, 0.00
2292.0, -40446.87, -2536.10, -7555.38, -7257.23, -4236.33, -3257.77, -22344.48, -38968.86, 0.00, 0.00, 0.00
2296.0, -40451.34, -2535.07, -7496.48, -7359.47, -4300.16, -3153.65, -22226.26, -38873.39, 0.00, 0.00, 0.00
2300.0, -41221.18, -2400.31, -7983.57, -7915.22, -4393.66, -2985.05, -22056.34, -39175.50, 0.00, 0.00, 0.00
2304.0, -41339.26, -2367.74, -8117.28, -7910.10, -4332.71, -3069.27, -22160.21, -39328.43, 0.00, 0.00, 0.00
2308.0, -40569.73, -2502.79, -7625.79, -7344.02, -4233.33, -3265.14, -22361.36, -39029.77, 0.00, 0.00, 0.00
2312.0, -40378.36, -2526.93, -7443.18, -7294.98, -4274.10, -3197.13, -22278.29, -38856.96, 0.00, 0.00, 0.00
2316.0, -41084.11, -2409.61, -7869.87, -7821.14, -4375.22, -3015.29, -22093.31, -39096.46, 0.00, 0.00, 0.00
2320.0, -41400.17, -2330.44, -8131.05, -7961.18, -4343.48, -3028.12, -22125.41, -39330.53, 0.00, 0.00, 0.00
2324.0, -40713.01, -2435.33, -7710.59, -7439.71, -4225.95, -3221.40, -22330.26, -39101.11, 0.00, 0.00, 0.00
2328.0, -40322.97, -2512.72, -7401.44, -7236.13, -4241.56, -3229.25, -22328.59, -38844.78, 0.00, 0.00, 0.00
2332.0, -40928.19, -2416.60, -7745.80, -7705.76, -4357.61, -3046.03, -22135.15, -39011.53, 0.00, 0.00, 0.00
2336.0, -41410.05, -2323.71, -8102.15, -7965.25, -4360.51, -3024.68, -22125.68, -39289.47, 0.00, 0.00, 0.00
2340.0, -40825.57, -2418.75, -7757.89, -7482.96, -4246.94, -3223.17, -22336.37, -39108.38, 0.00, 0.00, 0.00
2344.0, -40313.29, -2493.38, -7390.07, -7184.61, -4237.82, -3242.46, -22343.63, -38839.82, 0.00, 0.00, 0.00
2348.0, -40797.92, -2411.04, -7647.67, -7594.38, -4333.76, -3066.91, -22156.75, -38949.07, 0.00, 0.00, 0.00
2352.0, -41413.07, -2300.24, -8079.48, -7969.89, -4361.97, -3005.91, -22109.25, -39261.11, 0.00, 0.00, 0.00
2356.0, -40979.84, -2370.87, -7843.96, -7587.55, -4261.18, -3195.58, -22315.67, -39161.30, 0.00, 0.00, 0.00
2360.0, -40329.90, -2480.08, -7395.95, -7170.86, -4233.00, -3272.79, -22382.48, -38851.09, 0.00, 0.00, 0.00
2364.0, -40641.77, -2425.97, -7531.35, -7467.78, -4326.72, -3126.11, -22221.86, -38870.33, 0.00, 0.00, 0.00
2368.0, -41342.32, -2293.40, -8000.00, -7917.35, -4382.98, -3019.65, -22119.93, -39184.33, 0.00, 0.00, 0.00
2372.0, -41091.60, -2320.51, -7891.26, -7646.96, -4284.11, -3170.17, -22286.05, -39171.36, 0.00, 0.00, 0.00
2376.0, -40339.60, -2461.06, -7384.73, -7125.33, -4226.36, -3305.98, -22418.06, -38830.41, 0.00, 0.00, 0.00
2380.0, -40491.23, -2431.49, -7418.72, -7316.71, -4310.15, -3169.81, -22263.95, -38787.27, 0.00, 0.00, 0.00
2384.0, -41274.91, -2284.30, -7931.72, -7856.37, -4384.83, -3014.49, -22109.72, -39122.68, 0.00, 0.00, 0.00
2388.0, -41222.58, -2290.54, -7952.24, -7716.58, -4309.93, -3139.91, -22255.05, -39196.38, 0.00, 0.00, 0.00
2392.0, -40458.64, -2409.92, -7459.76, -7171.13, -4225.75, -3292.50, -22408.16, -38889.22, 0.00, 0.00, 0.00
2396.0, -40426.46, -2414.68, -7376.14, -7236.51, -4284.78, -3194.91, -22297.76, -38775.16, 0.00, 0.00, 0.00
2400.0, -41200.30, -2270.18, -7860.57, -7799.80, -4373.34, -3007.58, -22108.09, -39080.21, 0.00, 0.00, 0.00
2404.0, -41335.71, -2245.66, -8000.76, -7798.10, -4315.52, -3097.91, -22212.76, -39228.67, 0.00, 0.00, 0.00
2408.0, -40585.65, -2370.38, -7527.33, -7237.76, -4217.19, -3291.34, -22409.84, -38944.70, 0.00, 0.00, 0.00
2412.0, -40355.52, -2423.20, -7317.98, -7153.70, -4265.65, -3253.12, -22360.33, -38751.96, 0.00, 0.00, 0.00
2416.0, -41066.86, -2293.00, -7750.40, -7691.59, -4370.57, -3048.04, -22144.83, -39000.71, 0.00, 0.00, 0.00
2420.0, -41417.33, -2202.59, -8033.86, -7862.27, -4332.30, -3056.27, -22164.32, -39248.43, 0.00, 0.00, 0.00
2424.0, -40743.41, -2304.15, -7620.67, -7349.72, -4210.53, -3257.23, -22376.33, -39025.45, 0.00, 0.00, 0.00
2428.0, -40320.24, -2392.28, -7290.67, -7121.33, -4230.54, -3273.23, -22383.71, -38759.46, 0.00, 0.00, 0.00
2432.0, -40924.86, -2272.10, -7640.47, -7608.06, -4339.03, -3062.84, -22164.30, -38944.02, 0.00, 0.00, 0.00
2436.0, -41438.14, -2164.21, -8021.64, -7909.28, -4333.87, -3030.36, -22148.28, -39247.20, 0.00, 0.00, 0.00
2440.0, -40871.59, -2260.41, -7689.25, -7443.82, -4218.76, -3239.01, -22366.50, -39076.64, 0.00, 0.00, 0.00
2444.0, -40319.80, -2347.65, -7291.90, -7114.14, -4207.65, -3282.40, -22399.06, -38785.89, 0.00, 0.00, 0.00
2448.0, -40784.87, -2264.50, -7541.72, -7518.50, -4309.44, -3093.24, -22196.00, -38889.02, 0.00, 0.00, 0.00
2452.0, -41428.49, -2140.87, -7995.35, -7928.21, -4335.43, -3023.19, -22135.63, -39220.34, 0.00, 0.00, 0.00
2456.0, -40996.59, -2221.38, -7756.57, -7533.25, -4233.11, -3233.90, -22361.13, -39108.06, 0.00, 0.00, 0.00
2460.0, -40321.36, -2320.94, -7298.31, -7092.45, -4198.91, -3305.47, -22430.64, -38786.02, 0.00, 0.00, 0.00
2464.0, -40622.66, -2256.34, -7434.01, -7392.50, -4282.59, -3132.89, -22246.56, -38809.20, 0.00, 0.00, 0.00
2468.0, -41351.71, -2116.87, -7924.99, -7879.88, -4335.30, -2999.98, -22120.09, -39146.31, 0.00, 0.00, 0.00
2472.0, -41123.72, -2155.69, -7828.65, -7628.94, -4234.87, -3157.83, -22299.57, -39141.95, 0.00, 0.00, 0.00
2476.0, -40354.89, -2298.03, -7313.96, -7095.94, -4175.77, -3306.18, -22444.03, -38796.01, 0.00, 0.00, 0.00
2480.0, -40477.24, -2271.03, -7329.05, -7272.85, -4261.38, -3172.63, -22293.81, -38747.33, 0.00, 0.00, 0.00
2484.0, -41252.94, -2124.35, -7832.14, -7818.80, -4333.47, -3010.98, -22138.31, -39080.46, 0.00, 0.00, 0.00
2488.0, -41223.52, -2121.54, -7868.08, -7705.50, -4260.04, -3127.39, -22272.82, -39169.87, 0.00, 0.00, 0.00
2492.0, -40455.81, -2240.90, -7374.29, -7163.94, -4171.82, -3292.48, -22437.62, -38864.96, 0.00, 0.00, 0.00
2496.0, -40371.83, -2269.69, -7252.72, -7191.27, -4234.54, -3221.33, -22351.95, -38716.15, 0.00, 0.00, 0.00
2500.0, -41123.50, -2134.19, -7720.27, -7732.90, -4337.71, -3038.74, -22166.87, -38996.93, 0.00, 0.00, 0.00
2504.0, -41298.94, -2094.00, -7888.80, -7761.17, -4288.34, -3108.79, -22253.80, -39168.41, 0.00, 0.00, 0.00
2508.0, -40552.14, -2225.97, -7419.42, -7203.63, -4184.11, -3311.81, -22462.70, -38892.44, 0.00, 0.00, 0.00
2512.0, -40276.37, -2293.87, -7179.31, -7080.72, -4226.36, -3287.85, -22425.19, -38675.38, 0.00, 0.00, 0.00
2516.0, -40965.11, -2168.05, -7593.49, -7597.31, -4336.17, -3079.00, -22209.05, -38906.27, 0.00, 0.00, 0.00
2520.0, -41328.33, -2097.51, -7877.34, -7764.24, -4307.74, -3093.01, -22241.15, -39148.83, 0.00, 0.00, 0.00
2524.0, -40675.93, -2204.11, -7478.33, -7247.37, -4193.79, -3284.45, -22442.96, -38930.50, 0.00, 0.00, 0.00
2528.0, -40257.75, -2280.97, -7161.48, -7023.88, -4205.59, -3278.89, -22431.45, -38683.96, 0.00, 0.00, 0.00
2532.0, -40835.43, -2189.02, -7489.56, -7486.87, -4312.21, -3096.25, -22242.87, -38843.31, 0.00, 0.00, 0.00
2536.0, -41352.83, -2094.00, -7864.98, -7772.98, -4324.79, -3071.22, -22228.76, -39128.16, 0.00, 0.00, 0.00
2540.0, -40834.16, -2175.07, -7570.22, -7342.91, -4216.59, -3259.33, -22426.53, -38996.44, 0.00, 0.00, 0.00
2544.0, -40277.21, -2257.44, -7174.33, -7011.54, -4195.89, -3287.18, -22444.37, -38719.61, 0.00, 0.00, 0.00
2548.0, -40719.98, -2165.91, -7404.17, -7406.18, -4283.20, -3108.70, -22255.01, -38813.82, 0.00, 0.00, 0.00
2552.0, -41363.20, -2044.98, -7846.51, -7806.82, -4314.00, -3038.74, -22192.71, -39127.27, 0.00, 0.00, 0.00
2556.0, -41009.88, -2084.84, -7667.16, -7480.70, -4207.58, -3196.43, -22367.26, -39076.52, 0.00, 0.00, 0.00
2560.0, -40315.44, -2198.20, -7187.29, -7025.24, -4163.08, -3309.76, -22477.03, -38744.58, 0.00, 0.00, 0.00
2564.0, -40571.57, -2138.03, -7285.13, -7284.25, -4255.59, -3152.80, -22305.30, -38734.39, 0.00, 0.00, 0.00
2568.0, -41312.04, -1985.17, -7776.06, -7778.54, -4308.54, -3010.04, -22167.07, -39068.95, 0.00, 0.00, 0.00
2572.0, -41135.39, -1991.00, -7712.92, -7569.26, -4208.36, -3141.47, -22317.88, -39099.41, 0.00, 0.00, 0.00
2576.0, -40367.56, -2126.70, -7198.87, -7036.60, -4137.40, -3296.19, -22470.99, -38760.09, 0.00, 0.00, 0.00
2580.0, -40444.18, -2111.84, -7179.80, -7176.52, -4216.79, -3179.11, -22339.43, -38678.66, 0.00, 0.00, 0.00
2584.0, -41218.89, -1967.15, -7679.46, -7719.38, -4304.36, -3011.16, -22168.28, -39003.08, 0.00, 0.00, 0.00
2588.0, -41239.97, -1949.32, -7751.34, -7650.31, -4232.86, -3118.00, -22294.17, -39130.48, 0.00, 0.00, 0.00
2592.0, -40448.99, -2097.29, -7234.90, -7076.99, -4149.36, -3319.32, -22494.86, -38810.25, 0.00, 0.00, 0.00
2596.0, -40353.93, -2101.56, -7116.48, -7099.90, -4212.66, -3224.26, -22379.33, -38681.01, 0.00, 0.00, 0.00
2600.0, -41095.98, -1963.00, -7579.41, -7643.94, -4301.26, -3040.55, -22194.16, -38962.09, 0.00, 0.00, 0.00
2604.0, -41287.05, -1927.15, -7757.31, -7685.71, -4250.39, -3111.21, -22278.68, -39140.18, 0.00, 0.00, 0.00
2608.0, -40544.50, -2056.38, -7293.66, -7128.24, -4150.92, -3313.56, -22487.13, -38871.20, 0.00, 0.00, 0.00
2612.0, -40252.56, -2102.99, -7053.85, -7002.56, -4182.48, -3272.74, -22433.08, -38664.14, 0.00, 0.00, 0.00
2616.0, -40914.93, -1991.36, -7449.70, -7508.93, -4284.52, -3076.25, -22230.84, -38879.27, 0.00, 0.00, 0.00
2620.0, -41309.53, -1907.16, -7757.89, -7710.06, -4263.22, -3080.20, -22250.49, -39140.52, 0.00, 0.00, 0.00
2624.0, -40659.41, -2022.14, -7368.97, -7203.05, -4150.50, -3289.19, -22468.64, -38933.92, 0.00, 0.00, 0.00
2628.0, -40189.82, -2113.27, -7021.40, -6937.44, -4163.35, -3310.27, -22477.96, -38665.14, 0.00, 0.00, 0.00
2632.0, -40743.63, -2016.66, -7335.33, -7385.62, -4272.29, -3115.41, -22274.68, -38816.82, 0.00, 0.00, 0.00
2636.0, -41323.28, -1885.06, -7759.85, -7741.06, -4284.99, -3038.25, -22208.78, -39154.18, 0.00, 0.00, 0.00
2640.0, -40827.54, -1963.00, -7482.16, -7336.74, -4163.39, -3229.20, -22416.14, -39042.26, 0.00, 0.00, 0.00
2644.0, -40211.66, -2073.10, -7047.68, -6956.98, -4135.32, -3303.21, -22481.76, -38730.59, 0.00, 0.00, 0.00
2648.0, -40593.58, -2008.42, -7236.09, -7297.20, -4232.59, -3142.23, -22308.25, -38783.41, 0.00, 0.00, 0.00
2652.0, -41246.70, -1886.84, -7684.33, -7703.66, -4277.61, -3061.88, -22231.36, -39095.79, 0.00, 0.00, 0.00
2656.0, -40919.11, -1915.68, -7524.36, -7395.75, -4177.25, -3214.34, -22394.46, -39062.58, 0.00, 0.00, 0.00
2660.0, -40223.84, -2020.64, -7052.22, -6942.07, -4122.96, -3316.17, -22489.52, -38750.26, 0.00, 0.00, 0.00
2664.0, -40453.35, -1980.59, -7136.51, -7191.94, -4206.46, -3168.23, -22326.73, -38740.63, 0.00, 0.00, 0.00
2668.0, -41215.74, -1834.52, -7644.63, -7714.68, -4268.15, -3024.95, -22188.55, -39093.40, 0.00, 0.00, 0.00
2672.0, -41047.95, -1881.84, -7583.07, -7499.97, -4180.85, -3191.63, -22374.07, -39113.79, 0.00, 0.00, 0.00
2676.0, -40276.90, -2019.57, -7070.91, -6960.60, -4107.51, -3328.40, -22509.05, -38782.22, 0.00, 0.00, 0.00
2680.0, -40328.56, -2013.53, -7037.16, -7086.91, -4177.79, -3201.22, -22364.51, -38704.05, 0.00, 0.00, 0.00
2684.0, -41097.19, -1886.29, -7526.39, -7630.93, -4259.73, -3040.26, -22207.73, -39016.85, 0.00, 0.00, 0.00
2688.0, -41141.47, -1878.49, -7606.16, -7565.10, -4200.76, -3144.47, -22329.55, -39133.39, 0.00, 0.00, 0.00
2692.0, -40386.34, -1998.22, -7122.99, -7023.01, -4109.19, -3315.23, -22498.75, -38846.53, 0.00, 0.00, 0.00
2696.0, -40232.27, -2033.99, -6958.30, -6997.82, -4155.37, -3255.84, -22424.86, -38676.90, 0.00, 0.00, 0.00
2700.0, -40959.05, -1904.46, -7402.41, -7525.77, -4255.24, -3068.27, -22231.31, -38933.56, 0.00, 0.00, 0.00
2704.0, -41232.62, -1825.22, -7639.94, -7639.89, -4211.34, -3093.24, -22269.65, -39166.22, 0.00, 0.00, 0.00
2708.0, -40516.94, -1950.77, -7195.63, -7105.87, -4100.47, -3301.22, -22487.22, -38916.82, 0.00, 0.00, 0.00
2712.0, -40206.45, -2007.61, -6945.89, -6971.33, -4138.54, -3266.39, -22439.14, -38708.39, 0.00, 0.00, 0.00
2716.0, -40868.29, -1885.64, -7337.05, -7493.06, -4240.77, -3074.44, -22244.05, -38928.76, 0.00, 0.00, 0.00
2720.0, -41275.94, -1818.22, -7645.66, -7699.46, -4231.68, -3091.65, -22275.50, -39174.65, 0.00, 0.00, 0.00
2724.0, -40658.74, -1920.35, -7279.94, -7214.23, -4124.32, -3286.85, -22481.16, -38982.49, 0.00, 0.00, 0.00
2728.0, -40157.68, -2006.02, -6909.75, -6925.04, -4129.24, -3316.42, -22496.47, -38696.88, 0.00, 0.00, 0.00
2732.0, -40668.48, -1913.44, -7186.87, -7346.48, -4234.36, -3135.48, -22304.74, -38817.58, 0.00, 0.00, 0.00
2736.0, -41246.34, -1800.48, -7596.24, -7689.42, -4256.31, -3078.77, -22257.84, -39126.53, 0.00, 0.00, 0.00
2740.0, -40774.14, -1880.09, -7332.58, -7285.77, -4150.76, -3274.42, -22466.65, -39013.47, 0.00, 0.00, 0.00
2744.0, -40144.87, -1989.06, -6891.62, -6886.33, -4124.03, -3348.25, -22535.36, -38698.00, 0.00, 0.00, 0.00
2748.0, -40500.89, -1927.82, -7057.65, -7204.10, -4220.93, -3180.14, -22355.12, -38732.78, 0.00, 0.00, 0.00
2752.0, -41199.23, -1788.45, -7537.14, -7656.52, -4266.81, -3066.03, -22249.46, -39068.57, 0.00, 0.00, 0.00
2756.0, -40921.84, -1811.77, -7416.40, -7392.97, -4162.03, -3208.28, -22406.53, -39067.99, 0.00, 0.00, 0.00
2760.0, -40185.46, -1949.21, -6918.62, -6903.16, -4099.53, -3346.23, -22540.66, -38729.74, 0.00, 0.00, 0.00
2764.0, -40359.45, -1925.89, -6967.42, -7107.77, -4188.58, -3213.26, -22389.74, -38685.37, 0.00, 0.00, 0.00
2768.0, -41114.71, -1788.12, -7466.58, -7626.17, -4261.90, -3071.67, -22254.20, -39015.68, 0.00, 0.00, 0.00
2772.0, -41009.21, -1805.78, -7454.60, -7467.02, -4182.44, -3205.89, -22406.44, -39076.97, 0.00, 0.00, 0.00
2776.0, -40237.45, -1936.38, -6950.99, -6925.04, -4104.20, -3357.97, -22557.09, -38750.26, 0.00, 0.00, 0.00
2780.0, -40251.63, -1927.23, -6898.91, -7020.35, -4167.84, -3245.88, -22434.82, -38646.86, 0.00, 0.00, 0.00
2784.0, -41010.53, -1798.38, -7378.02, -7556.16, -4258.21, -3077.43, -22264.91, -38940.02, 0.00, 0.00, 0.00
2788.0, -41109.53, -1769.59, -7497.22, -7536.05, -4194.46, -3162.82, -22364.89, -39086.14, 0.00, 0.00, 0.00
2792.0, -40346.21, -1899.34, -7009.42, -6973.57, -4096.09, -3343.87, -22549.91, -38786.69, 0.00, 0.00, 0.00
2796.0, -40168.00, -1932.80, -6831.74, -6928.26, -4142.49, -3287.70, -22479.33, -38609.55, 0.00, 0.00, 0.00
2800.0, -40904.05, -1790.13, -7284.95, -7482.00, -4246.70, -3085.61, -22271.43, -38880.05, 0.00, 0.00, 0.00
2804.0, -41186.48, -1747.62, -7518.05, -7596.89, -4210.51, -3145.09, -22348.48, -39091.79, 0.00, 0.00, 0.00
2808.0, -40462.38, -1884.50, -7064.81, -7035.99, -4109.08, -3361.01, -22572.51, -38819.61, 0.00, 0.00, 0.00
2812.0, -40114.16, -1914.45, -6789.50, -6865.94, -4129.04, -3315.75, -22512.41, -38594.55, 0.00, 0.00, 0.00
2816.0, -40740.95, -1798.00, -7152.47, -7358.73, -4222.67, -3121.53, -22310.77, -38783.70, 0.00, 0.00, 0.00
2820.0, -41183.82, -1722.65, -7479.41, -7588.62, -4212.61, -3120.39, -22321.95, -39036.63, 0.00, 0.00, 0.00
2824.0, -40590.92, -1815.86, -7129.87, -7108.64, -4103.00, -3313.89, -22525.28, -38856.14, 0.00, 0.00, 0.00
2828.0, -40084.99, -1890.04, -6765.16, -6813.42, -4097.88, -3330.28, -22532.81, -38583.76, 0.00, 0.00, 0.00
2832.0, -40587.23, -1795.94, -7039.55, -7236.15, -4192.38, -3139.79, -22333.24, -38704.95, 0.00, 0.00, 0.00
2836.0, -41182.91, -1692.74, -7453.28, -7591.79, -4211.49, -3088.99, -22292.94, -39005.83, 0.00, 0.00, 0.00
2840.0, -40745.91, -1760.87, -7213.27, -7206.49, -4107.69, -3273.59, -22488.76, -38912.42, 0.00, 0.00, 0.00
2844.0, -40105.20, -1870.98, -6769.58, -6793.12, -4078.25, -3353.32, -22559.46, -38603.76, 0.00, 0.00, 0.00
2848.0, -40438.04, -1810.58, -6925.46, -7106.67, -4168.40, -3190.98, -22388.42, -38637.54, 0.00, 0.00, 0.00
2852.0, -41128.19, -1698.13, -7389.26, -7548.70, -4219.36, -3098.35, -22302.93, -38952.27, 0.00, 0.00, 0.00
2856.0, -40850.14, -1753.92, -7259.09, -7255.53, -4129.40, -3268.85, -22490.08, -38928.38, 0.00, 0.00, 0.00
2860.0, -40135.62, -1862.26, -6790.39, -6777.65, -4078.79, -3368.94, -22585.30, -38624.62, 0.00, 0.00, 0.00
2864.0, -40311.30, -1823.90, -6844.86, -6995.02, -4153.27, -3225.83, -22431.90, -38601.11, 0.00, 0.00, 0.00
2868.0, -41075.24, -1684.07, -7340.96, -7519.60, -4224.30, -3080.76, -22291.77, -38927.24, 0.00, 0.00, 0.00
2872.0, -40996.92, -1695.65, -7343.15, -7369.88, -4149.20, -3211.10, -22436.59, -38994.47, 0.00, 0.00, 0.00
2876.0, -40233.45, -1819.81, -6851.39, -6835.72, -4072.09, -3367.09, -22592.14, -38688.95, 0.00, 0.00, 0.00
2880.0, -40198.27, -1836.15, -6767.46, -6900.50, -4133.62, -3285.93, -22499.13, -38564.56, 0.00, 0.00, 0.00
2884.0, -40950.23, -1702.44, -7240.76, -7443.02, -4231.39, -3109.24, -22317.10, -38853.41, 0.00, 0.00, 0.00
2888.0, -41078.13, -1665.38, -7379.70, -7443.53, -4170.03, -3182.53, -22408.88, -39009.07, 0.00, 0.00, 0.00
2892.0, -40291.28, -1817.33, -6876.83, -6850.83, -4073.78, -3401.73, -22631.72, -38693.98, 0.00, 0.00, 0.00
2896.0, -40074.89, -1847.42, -6683.66, -6773.27, -4127.90, -3336.94, -22553.51, -38506.78, 0.00, 0.00, 0.00
2900.0, -40811.20, -1691.40, -7140.96, -7336.20, -4227.88, -3117.11, -22328.41, -38781.48, 0.00, 0.00, 0.00
2904.0, -41124.32, -1638.03, -7393.33, -7473.02, -4190.55, -3163.29, -22390.32, -39005.38, 0.00, 0.00, 0.00
2908.0, -40433.10, -1756.49, -6970.08, -6939.03, -4080.02, -3365.99, -22599.09, -38769.43, 0.00, 0.00, 0.00
2912.0, -40061.70, -1806.18, -6687.06, -6757.13, -4099.18, -3335.80, -22554.29, -38548.11, 0.00, 0.00, 0.00
2916.0, -40675.57, -1695.69, -7043.53, -7255.11, -4199.15, -3149.18, -22361.96, -38739.48, 0.00, 0.00, 0.00
2920.0, -41150.05, -1617.48, -7392.39, -7515.64, -4201.77, -3141.81, -22364.19, -39009.38, 0.00, 0.00, 0.00
2924.0, -40583.43, -1702.76, -7061.94, -7055.31, -4086.37, -3331.21, -22564.94, -38848.79, 0.00, 0.00, 0.00
2928.0, -40032.55, -1800.19, -6663.86, -6720.59, -4076.42, -3375.76, -22599.89, -38553.98, 0.00, 0.00, 0.00
2932.0, -40496.98, -1714.83, -6905.91, -7115.59, -4175.91, -3195.79, -22410.55, -38650.70, 0.00, 0.00, 0.00
2936.0, -41118.34, -1593.66, -7333.96, -7494.11, -4202.51, -3121.33, -22343.90, -38961.68, 0.00, 0.00, 0.00
2940.0, -40710.35, -1647.28, -7113.38, -7129.40, -4092.98, -3298.51, -22533.84, -38881.11, 0.00, 0.00, 0.00
2944.0, -40046.86, -1751.28, -6658.03, -6701.83, -4059.34, -3389.04, -22619.21, -38568.98, 0.00, 0.00, 0.00
2948.0, -40357.70, -1688.50, -6798.28, -7004.46, -4151.10, -3227.14, -22446.87, -38598.33, 0.00, 0.00, 0.00
2952.0, -41096.07, -1546.74, -7292.68, -7496.37, -4203.07, -3101.04, -22333.06, -38943.31, 0.00, 0.00, 0.00
2956.0, -40866.30, -1596.18, -7192.03, -7244.02, -4111.60, -3269.81, -22518.76, -38939.13, 0.00, 0.00, 0.00
2960.0, -40114.88, -1730.72, -6690.55, -6727.47, -4054.36, -3406.23, -22649.42, -38607.68, 0.00, 0.00, 0.00
2964.0, -40244.00, -1707.38, -6708.79, -6904.83, -4134.56, -3271.13, -22503.11, -38554.10, 0.00, 0.00, 0.00
2968.0, -41008.79, -1572.31, -7197.69, -7431.17, -4210.33, -3121.06, -22357.55, -38871.02, 0.00, 0.00, 0.00
2972.0, -40969.92, -1575.24, -7221.87, -7302.81, -4135.43, -3238.30, -22492.47, -38948.47, 0.00, 0.00, 0.00
2976.0, -40207.14, -1692.23, -6732.93, -6760.49, -4048.59, -3390.56, -22648.22, -38645.92, 0.00, 0.00, 0.00
2980.0, -40154.08, -1698.13, -6640.55, -6811.54, -4106.78, -3299.81, -22542.81, -38523.95, 0.00, 0.00, 0.00
2984.0, -40921.93, -1556.44, -7124.22, -7374.20, -4197.68, -3110.63, -22348.03, -38823.62, 0.00, 0.00, 0.00
2988.0, -41095.11, -1519.99, -7290.98, -7409.92, -4139.81, -3184.72, -22437.44, -38998.43, 0.00, 0.00, 0.00
2992.0, -40331.24, -1665.29, -6805.52, -6835.99, -4040.84, -3398.49, -22657.16, -38702.02, 0.00, 0.00, 0.00
2996.0, -40078.84, -1715.99, -6588.20, -6734.76, -4091.64, -3354.06, -22600.29, -38500.77, 0.00, 0.00, 0.00
3000.0, -40780.89, -1579.06, -7013.24, -7272.99, -4195.74, -3149.56, -22390.81, -38744.42, 0.00, 0.00, 0.00
3004.0, -41141.36, -1501.97, -7297.38, -7450.31, -4170.08, -3165.43, -22418.62, -38987.70, 0.00, 0.00, 0.00
3008.0, -40488.42, -1605.73, -6906.78, -6950.88, -4059.30, -3359.91, -22621.95, -38778.98, 0.00, 0.00, 0.00
3012.0, -40076.21, -1669.79, -6599.33, -6742.94, -4070.52, -3353.54, -22603.51, -38539.48, 0.00, 0.00, 0.00
3016.0, -40659.45, -1568.85, -6929.62, -7219.95, -4171.60, -3165.68, -22405.48, -38705.02, 0.00, 0.00, 0.00
3020.0, -41179.98, -1474.99, -7302.45, -7522.50, -4178.08, -3141.74, -22394.50, -38994.23, 0.00, 0.00, 0.00
3024.0, -40647.14, -1563.10, -6994.78, -7085.77, -4068.84, -3335.62, -22601.84, -38847.75, 0.00, 0.00, 0.00
3028.0, -40079.52, -1654.45, -6594.48, -6748.42, -4053.42, -3383.96, -22637.15, -38556.40, 0.00, 0.00, 0.00
3032.0, -40500.51, -1597.75, -6806.08, -7121.35, -4154.50, -3231.93, -22477.18, -38626.36, 0.00, 0.00, 0.00
3036.0, -41137.58, -1488.69, -7241.61, -7517.00, -4199.11, -3156.38, -22411.96, -38933.52, 0.00, 0.00, 0.00
3040.0, -40765.56, -1546.81, -7046.97, -7175.96, -4096.81, -3330.32, -22599.98, -38867.02, 0.00, 0.00, 0.00
3044.0, -40080.61, -1649.49, -6582.75, -6729.24, -4049.53, -3411.01, -22674.10, -38552.02, 0.00, 0.00, 0.00
3048.0, -40354.29, -1586.06, -6704.56, -7014.51, -4129.13, -3240.60, -22489.36, -38570.66, 0.00, 0.00, 0.00
3052.0, -41066.81, -1465.02, -7175.13, -7486.74, -4181.43, -3134.70, -22387.26, -38880.50, 0.00, 0.00, 0.00
3056.0, -40874.23, -1485.88, -7104.52, -7259.87, -4094.06, -3270.60, -22543.10, -38897.93, 0.00, 0.00, 0.00
3060.0, -40116.26, -1605.08, -6609.84, -6743.83, -4024.34, -3403.86, -22676.34, -38578.93, 0.00, 0.00, 0.00
3064.0, -40179.70, -1605.10, -6590.43, -6877.83, -4100.02, -3298.25, -22559.01, -38493.99, 0.00, 0.00, 0.00
3068.0, -40935.77, -1468.26, -7078.60, -7409.60, -4185.56, -3134.59, -22397.39, -38803.57, 0.00, 0.00, 0.00
3072.0, -40940.68, -1456.82, -7139.44, -7324.76, -4119.92, -3235.68, -22517.33, -38908.17, 0.00, 0.00, 0.00
3076.0, -40153.25, -1589.14, -6637.22, -6764.44, -4027.40, -3414.77, -22699.07, -38593.95, 0.00, 0.00, 0.00
3080.0, -40043.13, -1605.06, -6514.66, -6781.63, -4087.64, -3326.01, -22595.80, -38452.49, 0.00, 0.00, 0.00
3084.0, -40799.09, -1464.42, -6995.85, -7351.40, -4184.96, -3130.03, -22401.45, -38750.79, 0.00, 0.00, 0.00
3088.0, -40986.88, -1438.69, -7173.41, -7397.78, -4137.73, -3212.42, -22502.04, -38920.93, 0.00, 0.00, 0.00
3092.0, -40241.43, -1560.60, -6712.88, -6843.05, -4036.57, -3402.25, -22693.70, -38646.63, 0.00, 0.00, 0.00
3096.0, -39934.18, -1615.09, -6462.36, -6706.31, -4066.10, -3367.87, -22645.58, -38425.71, 0.00, 0.00, 0.00
3100.0, -40598.97, -1497.99, -6861.47, -7218.90, -4168.89, -3169.79, -22438.63, -38641.58, 0.00, 0.00, 0.00
3104.0, -41005.10, -1407.60, -7179.60, -7436.02, -4143.14, -3162.91, -22443.70, -38910.50, 0.00, 0.00, 0.00
3108.0, -40367.23, -1519.58, -6799.20, -6942.36, -4025.88, -3366.19, -22660.51, -38711.68, 0.00, 0.00, 0.00
3112.0, -39891.52, -1616.08, -6444.54, -6667.88, -4033.35, -3394.83, -22678.95, -38430.56, 0.00, 0.00, 0.00
3116.0, -40455.34, -1508.70, -6761.54, -7125.62, -4139.90, -3192.03, -22463.75, -38586.26, 0.00, 0.00, 0.00
3120.0, -41009.39, -1402.95, -7156.87, -7453.86, -4145.73, -3147.15, -22432.37, -38887.95, 0.00, 0.00, 0.00
3124.0, -40516.71, -1477.09, -6879.02, -7043.95, -4029.84, -3324.24, -22617.95, -38767.29, 0.00, 0.00, 0.00
3128.0, -39916.13, -1587.51, -6453.06, -6669.45, -4004.45, -3392.70, -22677.97, -38460.02, 0.00, 0.00, 0.00
3132.0, -40312.29, -1539.88, -6647.10, -7013.15, -4109.73, -3235.66, -22514.17, -38514.60, 0.00, 0.00, 0.00
3136.0, -40996.50, -1425.55, -7112.75, -7445.01, -4160.73, -3148.00, -22434.94, -38845.03, 0.00, 0.00, 0.00
3140.0, -40676.62, -1480.71, -6951.26, -7136.06, -4060.17, -3311.01, -22618.09, -38807.19, 0.00, 0.00, 0.00
3144.0, -39965.72, -1608.66, -6465.22, -6659.90, -4004.52, -3418.43, -22722.49, -38474.48, 0.00, 0.00, 0.00
3148.0, -40193.00, -1568.53, -6545.40, -6899.71, -4090.77, -3274.89, -22565.25, -38455.71, 0.00, 0.00, 0.00
3152.0, -40946.92, -1426.80, -7038.72, -7405.69, -4153.65, -3132.91, -22427.16, -38785.53, 0.00, 0.00, 0.00
3156.0, -40806.64, -1448.37, -6995.54, -7214.72, -4062.52, -3273.66, -22585.34, -38825.65, 0.00, 0.00, 0.00
3160.0, -40041.27, -1588.58, -6489.90, -6676.09, -3994.79, -3428.13, -22735.46, -38494.31, 0.00, 0.00, 0.00
3164.0, -40103.48, -1566.99, -6468.57, -6808.90, -4068.40, -3307.03, -22599.49, -38417.08, 0.00, 0.00, 0.00
3168.0, -40866.41, -1438.04, -6950.68, -7340.56, -4154.21, -3154.03, -22445.67, -38712.24, 0.00, 0.00, 0.00
3172.0, -40926.94, -1420.88, -7044.24, -7292.75, -4091.29, -3246.01, -22556.69, -38840.09, 0.00, 0.00, 0.00
3176.0, -40166.11, -1548.60, -6556.17, -6742.49, -3996.92, -3421.96, -22737.91, -38545.07, 0.00, 0.00, 0.00
3180.0, -40010.38, -1589.30, -6388.37, -6708.70, -4052.28, -3364.97, -22665.83, -38367.93, 0.00, 0.00, 0.00
3184.0, -40752.30, -1460.84, -6842.81, -7252.72, -4155.50, -3173.08, -22471.01, -38633.27, 0.00, 0.00, 0.00
3188.0, -40994.42, -1415.40, -7049.92, -7334.88, -4112.48, -3227.79, -22542.49, -38825.40, 0.00, 0.00, 0.00
3192.0, -40264.68, -1536.62, -6598.15, -6782.61, -4006.19, -3425.14, -22745.31, -38560.49, 0.00, 0.00, 0.00
3196.0, -39955.69, -1567.13, -6357.69, -6655.83, -4033.84, -3374.87, -22681.16, -38361.11, 0.00, 0.00, 0.00
3200.0, -40616.56, -1444.03, -6752.53, -7181.68, -4133.31, -3176.41, -22474.75, -38579.33, 0.00, 0.00, 0.00
3204.0, -41036.86, -1371.84, -7068.45, -7406.18, -4119.52, -3189.46, -22502.21, -38837.18, 0.00, 0.00, 0.00
3208.0, -40402.81, -1487.49, -6687.73, -6901.12, -4012.12, -3402.38, -22727.16, -38631.59, 0.00, 0.00, 0.00
3212.0, -39910.09, -1573.29, -6332.94, -6618.71, -4021.68, -3430.34, -22741.83, -38358.97, 0.00, 0.00, 0.00
3216.0, -40445.23, -1471.59, -6636.70, -7065.63, -4128.57, -3232.71, -22532.26, -38503.40, 0.00, 0.00, 0.00
3220.0, -41032.88, -1362.61, -7053.54, -7426.72, -4145.06, -3183.42, -22496.45, -38817.40, 0.00, 0.00, 0.00
3224.0, -40553.04, -1450.56, -6784.11, -7020.55, -4038.00, -3380.46, -22708.92, -38693.19, 0.00, 0.00, 0.00
3228.0, -39915.01, -1561.14, -6343.78, -6616.56, -4014.02, -3458.04, -22778.82, -38372.76, 0.00, 0.00, 0.00
3232.0, -40277.75, -1489.12, -6524.36, -6952.67, -4109.52, -3277.86, -22587.02, -38422.42, 0.00, 0.00, 0.00
3236.0, -40979.38, -1361.67, -7003.61, -7416.78, -4154.18, -3176.00, -22494.17, -38757.95, 0.00, 0.00, 0.00
3240.0, -40705.45, -1397.45, -6881.12, -7159.13, -4057.00, -3329.92, -22660.06, -38750.48, 0.00, 0.00, 0.00
3244.0, -39986.96, -1506.93, -6401.07, -6691.67, -3991.55, -3440.13, -22763.87, -38435.32, 0.00, 0.00, 0.00
3248.0, -40148.29, -1478.59, -6437.08, -6889.59, -4069.49, -3311.66, -22622.02, -38385.45, 0.00, 0.00, 0.00
3252.0, -40907.80, -1340.79, -6933.82, -7410.83, -4147.41, -3162.24, -22473.05, -38712.13, 0.00, 0.00, 0.00
3256.0, -40821.35, -1342.16, -6931.88, -7271.40, -4064.04, -3287.74, -22618.56, -38781.62, 0.00, 0.00, 0.00
3260.0, -40022.81, -1491.02, -6407.06, -6705.55, -3988.13, -3466.89, -22800.83, -38433.20, 0.00, 0.00, 0.00
3264.0, -40007.68, -1484.22, -6338.93, -6777.41, -4060.13, -3355.85, -22675.82, -38314.24, 0.00, 0.00, 0.00
3268.0, -40771.73, -1352.03, -6820.88, -7319.95, -4151.50, -3184.39, -22504.92, -38607.47, 0.00, 0.00, 0.00
3272.0, -40888.58, -1319.02, -6950.70, -7319.06, -4089.05, -3257.34, -22592.90, -38758.97, 0.00, 0.00, 0.00
3276.0, -40144.65, -1428.68, -6479.59, -6784.34, -3983.21, -3427.64, -22765.01, -38479.80, 0.00, 0.00, 0.00
3280.0, -39942.50, -1468.84, -6289.33, -6724.43, -4026.13, -3380.68, -22710.85, -38291.67, 0.00, 0.00, 0.00
3284.0, -40647.07, -1361.47, -6710.42, -7240.56, -4134.18, -3209.11, -22536.26, -38521.91, 0.00, 0.00, 0.00
3288.0, -40964.62, -1290.32, -6966.64, -7381.73, -4107.27, -3231.44, -22572.98, -38751.46, 0.00, 0.00, 0.00
3292.0, -40274.45, -1403.94, -6543.38, -6858.72, -3992.27, -3431.37, -22780.00, -38513.29, 0.00, 0.00, 0.00
3296.0, -39879.91, -1476.65, -6234.77, -6646.45, -4006.53, -3423.06, -22759.82, -38255.12, 0.00, 0.00, 0.00
3300.0, -40485.58, -1378.86, -6584.85, -7113.11, -4117.06, -3240.00, -22568.98, -38425.08, 0.00, 0.00, 0.00
3304.0, -40984.85, -1276.15, -6959.80, -7400.44, -4118.62, -3207.48, -22547.70, -38726.88, 0.00, 0.00, 0.00
3308.0, -40415.28, -1371.97, -6627.27, -6950.63, -4002.77, -3408.44, -22758.01, -38568.27, 0.00, 0.00, 0.00
3312.0, -39863.75, -1478.25, -6229.41, -6612.85, -3996.85, -3457.93, -22793.71, -38262.92, 0.00, 0.00, 0.00
3316.0, -40364.07, -1369.87, -6508.58, -7039.32, -4095.04, -3252.27, -22577.00, -38393.97, 0.00, 0.00, 0.00
3320.0, -40993.46, -1259.68, -6948.29, -7432.40, -4120.34, -3191.63, -22529.19, -38721.65, 0.00, 0.00, 0.00
3324.0, -40581.09, -1327.34, -6727.85, -7081.19, -4014.95, -3369.66, -22725.20, -38647.28, 0.00, 0.00, 0.00
3328.0, -39921.40, -1437.93, -6276.75, -6665.38, -3976.64, -3458.69, -22807.61, -38333.44, 0.00, 0.00, 0.00
3332.0, -40226.86, -1392.63, -6413.43, -6958.21, -4070.50, -3311.90, -22647.75, -38352.80, 0.00, 0.00, 0.00
3336.0, -40952.21, -1256.53, -6905.01, -7439.11, -4127.12, -3185.08, -22524.54, -38696.21, 0.00, 0.00, 0.00
3340.0, -40720.00, -1281.47, -6811.76, -7209.80, -4026.42, -3330.01, -22684.27, -38714.25, 0.00, 0.00, 0.00
3344.0, -39956.74, -1416.59, -6304.24, -6698.39, -3961.06, -3471.34, -22819.90, -38375.84, 0.00, 0.00, 0.00
3348.0, -40078.78, -1383.35, -6321.39, -6871.62, -4038.49, -3333.63, -22672.22, -38321.08, 0.00, 0.00, 0.00
3352.0, -40824.07, -1253.24, -6802.78, -7383.36, -4115.05, -3190.00, -22533.33, -38633.98, 0.00, 0.00, 0.00
3356.0, -40777.85, -1247.47, -6831.39, -7274.42, -4039.00, -3294.76, -22653.89, -38729.96, 0.00, 0.00, 0.00
3360.0, -39981.93, -1381.92, -6312.94, -6715.74, -3946.38, -3465.62, -22823.01, -38400.39, 0.00, 0.00, 0.00
3364.0, -39920.01, -1388.20, -6213.25, -6758.12, -4007.98, -3368.97, -22713.75, -38266.23, 0.00, 0.00, 0.00
3368.0, -40676.80, -1255.41, -6691.71, -7304.17, -4109.28, -3191.11, -22533.60, -38558.03, 0.00, 0.00, 0.00
3372.0, -40849.11, -1211.62, -6865.76, -7350.88, -4059.01, -3255.62, -22613.24, -38748.16, 0.00, 0.00, 0.00
3376.0, -40095.99, -1340.14, -6393.18, -6800.52, -3955.48, -3450.26, -22814.36, -38469.14, 0.00, 0.00, 0.00
3380.0, -39849.29, -1381.09, -6176.06, -6704.23, -3993.79, -3403.66, -22755.84, -38267.66, 0.00, 0.00, 0.00
3384.0, -40532.07, -1273.07, -6580.93, -7208.21, -4102.15, -3229.87, -22580.51, -38487.94, 0.00, 0.00, 0.00
3388.0, -40877.92, -1207.75, -6854.01, -7364.83, -4087.37, -3252.67, -22616.75, -38723.66, 0.00, 0.00, 0.00
3392.0, -40203.28, -1315.82, -6442.33, -6841.80, -3976.51, -3454.44, -22829.89, -38497.01, 0.00, 0.00, 0.00
3396.0, -39802.02, -1371.28, -6140.98, -6627.81, -3993.99, -3439.31, -22804.19, -38255.61, 0.00, 0.00, 0.00
3400.0, -40397.07, -1261.13, -6485.72, -7099.76, -4099.67, -3247.46, -22605.23, -38429.29, 0.00, 0.00, 0.00
3404.0, -40928.39, -1153.91, -6879.11, -7415.79, -4102.95, -3211.12, -22577.29, -38741.54, 0.00, 0.00, 0.00
3408.0, -40370.22, -1258.83, -6555.74, -6964.29, -3989.92, -3426.28, -22803.25, -38581.81, 0.00, 0.00, 0.00
3412.0, -39779.78, -1373.36, -6134.23, -6594.10, -3983.35, -3493.98, -22862.19, -38263.14, 0.00, 0.00, 0.00
3416.0, -40216.02, -1293.99, -6361.69, -6959.66, -4094.10, -3311.28, -22667.26, -38343.54, 0.00, 0.00, 0.00
3420.0, -40874.23, -1160.88, -6821.86, -7374.71, -4128.50, -3220.42, -22585.34, -38682.42, 0.00, 0.00, 0.00
3424.0, -40496.87, -1211.08, -6630.80, -7045.78, -4019.16, -3379.56, -22757.65, -38627.66, 0.00, 0.00, 0.00
3428.0, -39819.16, -1322.69, -6174.20, -6614.60, -3971.82, -3469.53, -22844.51, -38316.21, 0.00, 0.00, 0.00
3432.0, -40099.99, -1273.51, -6299.46, -6898.28, -4060.57, -3316.31, -22675.20, -38331.43, 0.00, 0.00, 0.00
3436.0, -40832.30, -1142.42, -6788.45, -7389.89, -4117.79, -3199.00, -22562.79, -38664.23, 0.00, 0.00, 0.00
3440.0, -40612.83, -1185.16, -6693.50, -7147.17, -4026.82, -3362.53, -22747.21, -38660.49, 0.00, 0.00, 0.00
3444.0, -39844.31, -1308.83, -6182.00, -6610.84, -3964.15, -3493.87, -22877.41, -38315.18, 0.00, 0.00, 0.00
3448.0, -39949.59, -1268.84, -6193.62, -6772.11, -4034.65, -3353.97, -22724.62, -38253.20, 0.00, 0.00, 0.00
3452.0, -40723.60, -1127.24, -6699.78, -7316.84, -4113.64, -3192.21, -22563.93, -38578.57, 0.00, 0.00, 0.00
3456.0, -40716.25, -1126.97, -6751.34, -7229.83, -4039.23, -3304.59, -22692.38, -38680.54, 0.00, 0.00, 0.00
3460.0, -39927.05, -1258.11, -6244.18, -6670.48, -3944.99, -3476.81, -22865.99, -38362.66, 0.00, 0.00, 0.00
3464.0, -39817.82, -1279.01, -6111.03, -6673.00, -3996.25, -3400.35, -22775.29, -38205.07, 0.00, 0.00, 0.00
3468.0, -40566.54, -1147.38, -6579.39, -7212.71, -4098.06, -3216.80, -22589.61, -38484.90, 0.00, 0.00, 0.00
3472.0, -40764.77, -1111.69, -6763.01, -7265.08, -4056.15, -3285.48, -22674.86, -38670.55, 0.00, 0.00, 0.00
3476.0, -40017.13, -1240.28, -6291.41, -6704.94, -3951.70, -3484.03, -22878.57, -38389.25, 0.00, 0.00, 0.00
3480.0, -39743.66, -1282.01, -6062.60, -6586.59, -3987.35, -3435.42, -22820.26, -38179.93, 0.00, 0.00, 0.00
3484.0, -40415.39, -1168.68, -6465.09, -7090.53, -4092.56, -3254.86, -22635.88, -38393.59, 0.00, 0.00, 0.00
3488.0, -40807.76, -1085.85, -6774.19, -7288.97, -4076.31, -3253.68, -22647.50, -38656.76, 0.00, 0.00, 0.00
3492.0, -40164.65, -1193.23, -6391.41, -6795.29, -3959.25, -3451.13, -22854.57, -38457.58, 0.00, 0.00, 0.00
3496.0, -39708.59, -1280.78, -6052.23, -6536.52, -3968.82, -3471.09, -22863.20, -38184.58, 0.00, 0.00, 0.00
3500.0, -40282.40, -1164.17, -6384.17, -7002.94, -4074.90, -3265.90, -22643.75, -38349.76, 0.00, 0.00, 0.00
3504.0, -40829.64, -1059.34, -6779.60, -7331.93, -4079.77, -3228.91, -22618.76, -38657.25, 0.00, 0.00, 0.00
3508.0, -40296.53, -1154.45, -6469.67, -6892.38, -3967.26, -3434.32, -22839.41, -38503.58, 0.00, 0.00, 0.00
3512.0, -39700.96, -1264.44, -6047.04, -6517.81, -3951.48, -3497.20, -22892.25, -38191.06, 0.00, 0.00, 0.00
3516.0, -40110.67, -1196.73, -6257.75, -6873.45, -4053.62, -3327.12, -22710.85, -38259.19, 0.00, 0.00, 0.00
3520.0, -40771.21, -1064.28, -6721.75, -7297.98, -4093.74, -3230.81, -22622.04, -38591.61, 0.00, 0.00, 0.00
3524.0, -40428.83, -1097.74, -6560.26, -6997.06, -3986.93, -3382.06, -22789.64, -38561.03, 0.00, 0.00, 0.00
3528.0, -39709.30, -1227.85, -6073.80, -6527.56, -3936.63, -3500.48, -22905.87, -38225.59, 0.00, 0.00, 0.00
3532.0, -39935.01, -1190.14, -6157.77, -6763.35, -4028.81, -3356.05, -22746.43, -38206.35, 0.00, 0.00, 0.00
3536.0, -40675.43, -1044.59, -6653.02, -7259.47, -4092.02, -3212.97, -22607.18, -38540.80, 0.00, 0.00, 0.00
3540.0, -40515.15, -1060.46, -6606.73, -7066.97, -3998.59, -3351.82, -22759.71, -38580.12, 0.00, 0.00, 0.00
3544.0, -39736.13, -1205.03, -6095.12, -6528.65, -3924.74, -3511.95, -22916.30, -38240.01, 0.00, 0.00, 0.00
3548.0, -39808.75, -1174.79, -6086.98, -6674.21, -3994.86, -3371.58, -22761.50, -38172.89, 0.00, 0.00, 0.00
3552.0, -40580.06, -1024.13, -6585.32, -7226.79, -4069.07, -3206.34, -22599.58, -38495.04, 0.00, 0.00, 0.00
3556.0, -40605.09, -1019.93, -6657.89, -7162.42, -4001.21, -3312.28, -22721.06, -38607.18, 0.00, 0.00, 0.00
3560.0, -39822.52, -1154.45, -6160.27, -6607.91, -3910.68, -3491.97, -22903.65, -38296.05, 0.00, 0.00, 0.00
3564.0, -39683.02, -1185.31, -6013.00, -6595.82, -3968.17, -3426.21, -22823.05, -38132.95, 0.00, 0.00, 0.00
3568.0, -40402.23, -1070.45, -6454.85, -7119.79, -4077.05, -3257.41, -22649.92, -38386.41, 0.00, 0.00, 0.00
3572.0, -40622.73, -1022.84, -6651.99, -7187.92, -4041.02, -3307.72, -22716.05, -38572.43, 0.00, 0.00, 0.00
3576.0, -39906.18, -1119.53, -6213.32, -6658.18, -3927.29, -3476.12, -22891.34, -38323.38, 0.00, 0.00, 0.00
3580.0, -39597.39, -1159.83, -5962.57, -6522.91, -3946.74, -3435.73, -22840.73, -38108.49, 0.00, 0.00, 0.00
3584.0, -40255.58, -1040.67, -6352.95, -7032.86, -4046.47, -3243.62, -22641.45, -38321.77, 0.00, 0.00, 0.00
3588.0, -40643.27, -986.78, -6646.49, -7222.21, -4035.76, -3277.03, -22688.63, -38557.88, 0.00, 0.00, 0.00
3592.0, -40018.74, -1081.18, -6277.42, -6735.61, -3930.87, -3463.83, -22883.87, -38366.97, 0.00, 0.00, 0.00
3596.0, -39521.62, -1176.28, -5913.40, -6443.54, -3938.13, -3501.85, -22909.40, -38079.97, 0.00, 0.00, 0.00
3600.0, -40064.90, -1067.32, -6222.57, -6886.19, -4047.27, -3294.54, -22691.29, -38226.24, 0.00, 0.00, 0.00
3604.0, -40638.02, -959.34, -6633.73, -7236.18, -4057.60, -3247.35, -22658.46, -38544.02, 0.00, 0.00, 0.00
3608.0, -40165.48, -1029.68, -6376.48, -6850.97, -3948.82, -3418.90, -22843.33, -38446.36, 0.00, 0.00, 0.00
3612.0, -39564.48, -1118.39, -5962.75, -6491.10, -3915.44, -3471.00, -22888.32, -38162.34, 0.00, 0.00, 0.00
3616.0, -39945.18, -1053.91, -6150.02, -6839.37, -4003.53, -3302.29, -22704.32, -38220.25, 0.00, 0.00, 0.00
3620.0, -40618.91, -941.59, -6608.56, -7276.95, -4042.18, -3222.05, -22632.19, -38542.90, 0.00, 0.00, 0.00
3624.0, -40288.55, -1008.98, -6441.86, -6965.61, -3947.18, -3404.53, -22828.15, -38492.68, 0.00, 0.00, 0.00
3628.0, -39562.59, -1132.16, -5953.63, -6481.85, -3900.27, -3515.91, -22934.32, -38156.71, 0.00, 0.00, 0.00
3632.0, -39768.27, -1088.51, -6029.18, -6710.40, -3986.48, -3369.70, -22775.58, -38131.79, 0.00, 0.00, 0.00
3636.0, -40522.97, -950.22, -6528.48, -7225.92, -4054.09, -3226.56, -22634.78, -38463.11, 0.00, 0.00, 0.00
3640.0, -40389.18, -970.38, -6496.27, -7049.90, -3969.09, -3358.66, -22783.11, -38507.54, 0.00, 0.00, 0.00
3644.0, -39610.24, -1096.04, -5992.37, -6516.07, -3888.47, -3511.66, -22937.52, -38181.61, 0.00, 0.00, 0.00
3648.0, -39606.02, -1100.40, -5926.23, -6595.40, -3958.96, -3413.38, -22824.95, -38061.73, 0.00, 0.00, 0.00
3652.0, -40387.84, -940.78, -6431.80, -7156.34, -4044.32, -3222.70, -22631.23, -38384.36, 0.00, 0.00, 0.00
3656.0, -40451.22, -934.12, -6526.96, -7115.61, -3975.01, -3332.20, -22755.68, -38510.91, 0.00, 0.00, 0.00
3660.0, -39670.90, -1058.38, -6031.37, -6551.83, -3878.03, -3507.52, -22932.64, -38204.36, 0.00, 0.00, 0.00
3664.0, -39509.16, -1063.03, -5878.20, -6530.82, -3925.21, -3416.55, -22827.37, -38047.65, 0.00, 0.00, 0.00
3668.0, -40248.61, -925.52, -6340.43, -7089.06, -4023.31, -3225.31, -22630.29, -38324.12, 0.00, 0.00, 0.00
3672.0, -40520.11, -873.68, -6567.64, -7203.43, -3981.23, -3269.08, -22685.12, -38539.03, 0.00, 0.00, 0.00
3676.0, -39796.74, -1004.24, -6112.58, -6659.34, -3865.06, -3480.08, -22904.26, -38274.81, 0.00, 0.00, 0.00
3680.0, -39448.59, -1059.03, -5835.53, -6487.64, -3894.66, -3450.15, -22859.06, -38041.46, 0.00, 0.00, 0.00
3684.0, -40092.97, -943.53, -6215.46, -6990.42, -3999.20, -3258.03, -22663.55, -38242.20, 0.00, 0.00, 0.00
3688.0, -40523.33, -876.34, -6534.71, -7213.53, -3991.33, -3270.86, -22693.21, -38492.05, 0.00, 0.00, 0.00
3692.0, -39913.84, -977.02, -6174.20, -6727.07, -3886.05, -3465.95, -22896.99, -38302.30, 0.00, 0.00, 0.00
3696.0, -39416.88, -1051.90, -5817.06, -6444.37, -3881.43, -3485.71, -22906.38, -38034.82, 0.00, 0.00, 0.00
3700.0, -39909.62, -978.94, -6081.15, -6848.89, -3987.26, -3323.06, -22731.32, -38138.31, 0.00, 0.00, 0.00
3704.0, -40499.91, -873.55, -6501.03, -7205.93, -4013.23, -3262.28, -22680.94, -38445.58, 0.00, 0.00, 0.00
3708.0, -40053.97, -932.45, -6261.73, -6829.96, -3900.76, -3429.34, -22863.38, -38354.14, 0.00, 0.00, 0.00
3712.0, -39408.20, -1031.04, -5818.96, -6422.53, -3865.71, -3500.98, -22928.26, -38040.88, 0.00, 0.00, 0.00
3716.0, -39764.22, -960.48, -5996.21, -6756.08, -3957.58, -3328.98, -22746.23, -38092.73, 0.00, 0.00, 0.00
3720.0, -40472.23, -838.35, -6476.84, -7224.64, -4006.59, -3230.97, -22657.20, -38431.14, 0.00, 0.00, 0.00
3724.0, -40169.01, -909.29, -6327.31, -6927.65, -3911.35, -3416.17, -22863.82, -38385.79, 0.00, 0.00, 0.00
3728.0, -39424.72, -1034.24, -5833.60, -6420.90, -3863.54, -3530.37, -22974.60, -38042.71, 0.00, 0.00, 0.00
3732.0, -39606.53, -980.86, -5896.73, -6633.89, -3942.09, -3370.62, -22799.81, -38015.62, 0.00, 0.00, 0.00
3736.0, -40381.22, -837.79, -6409.81, -7172.50, -4006.30, -3221.18, -22647.48, -38359.77, 0.00, 0.00, 0.00
3740.0, -40298.74, -855.87, -6415.22, -7037.25, -3921.23, -3359.20, -22798.60, -38434.98, 0.00, 0.00, 0.00
3744.0, -39497.63, -1010.50, -5893.71, -6468.91, -3844.32, -3542.64, -22982.49, -38088.02, 0.00, 0.00, 0.00
3748.0, -39470.56, -1008.38, -5818.25, -6529.82, -3916.54, -3432.94, -22859.73, -37967.01, 0.00, 0.00, 0.00
3752.0, -40241.01, -872.66, -6307.28, -7077.79, -4012.41, -3255.69, -22682.50, -38270.23, 0.00, 0.00, 0.00
3756.0, -40353.57, -847.85, -6434.35, -7066.12, -3955.05, -3343.82, -22787.54, -38415.85, 0.00, 0.00, 0.00
3760.0, -39584.96, -978.31, -5952.36, -6501.16, -3859.14, -3529.70, -22981.10, -38118.48, 0.00, 0.00, 0.00
3764.0, -39398.61, -990.00, -5785.88, -6456.79, -3906.26, -3449.34, -22886.04, -37955.86, 0.00, 0.00, 0.00
3768.0, -40125.89, -857.99, -6232.34, -7005.10, -4002.39, -3264.05, -22693.66, -38218.66, 0.00, 0.00, 0.00
3772.0, -40432.27, -805.87, -6481.92, -7141.61, -3969.76, -3303.90, -22745.04, -38442.47, 0.00, 0.00, 0.00
3776.0, -39736.10, -922.21, -6057.48, -6619.22, -3862.85, -3502.29, -22952.56, -38205.52, 0.00, 0.00, 0.00
3780.0, -39339.89, -991.46, -5751.28, -6409.85, -3882.86, -3499.21, -22938.41, -37948.01, 0.00, 0.00, 0.00
3784.0, -39936.87, -896.57, -6093.44, -6870.68, -3990.23, -3318.59, -22744.73, -38110.64, 0.00, 0.00, 0.00
3788.0, -40414.39, -804.15, -6445.37, -7133.87, -3987.98, -3299.97, -22733.94, -38387.76, 0.00, 0.00, 0.00
3792.0, -39852.31, -880.19, -6121.54, -6689.03, -3874.41, -3475.05, -22915.97, -38236.70, 0.00, 0.00, 0.00
3796.0, -39324.74, -955.54, -5745.14, -6382.85, -3858.83, -3501.09, -22935.06, -37958.34, 0.00, 0.00, 0.00
3800.0, -39796.70, -877.35, -5995.32, -6781.30, -3960.57, -3328.38, -22753.31, -38056.46, 0.00, 0.00, 0.00
3804.0, -40436.79, -752.96, -6447.94, -7191.47, -3991.86, -3245.05, -22682.37, -38397.10, 0.00, 0.00, 0.00
3808.0, -40017.54, -832.20, -6222.55, -6837.11, -3879.30, -3435.31, -22889.28, -38316.61, 0.00, 0.00, 0.00
3812.0, -39339.43, -957.24, -5754.05, -6394.54, -3844.75, -3530.99, -22976.68, -37980.35, 0.00, 0.00, 0.00
3816.0, -39645.09, -899.81, -5888.03, -6679.84, -3939.09, -3371.22, -22804.10, -37992.06, 0.00, 0.00, 0.00
3820.0, -40378.11, -756.99, -6382.00, -7165.43, -3992.78, -3245.18, -22682.73, -38336.75, 0.00, 0.00, 0.00
3824.0, -40125.34, -806.70, -6267.52, -6907.05, -3895.84, -3419.06, -22874.48, -38327.81, 0.00, 0.00, 0.00
3828.0, -39368.06, -930.23, -5764.72, -6391.08, -3836.63, -3542.06, -22992.34, -37989.23, 0.00, 0.00, 0.00
3832.0, -39502.46, -891.68, -5791.02, -6572.71, -3912.09, -3403.52, -22839.64, -37937.32, 0.00, 0.00, 0.00
3836.0, -40275.68, -749.66, -6294.45, -7108.77, -3989.21, -3245.92, -22683.58, -38265.45, 0.00, 0.00, 0.00
3840.0, -40243.35, -745.34, -6332.16, -7010.51, -3905.05, -3357.50, -22810.51, -38366.45, 0.00, 0.00, 0.00
3844.0, -39447.81, -894.20, -5813.80, -6441.50, -3820.27, -3542.46, -22999.81, -38031.61, 0.00, 0.00, 0.00
3848.0, -39400.11, -886.27, -5726.38, -6495.17, -3882.12, -3435.06, -22879.51, -37910.55, 0.00, 0.00, 0.00
3852.0, -40160.09, -753.48, -6201.02, -7042.74, -3974.41, -3259.98, -22702.91, -38199.98, 0.00, 0.00, 0.00
3856.0, -40320.73, -716.64, -6358.45, -7073.41, -3917.84, -3326.30, -22784.63, -38374.48, 0.00, 0.00, 0.00
3860.0, -39572.62, -841.70, -5886.47, -6527.87, -3814.03, -3514.68, -22977.75, -38096.45, 0.00, 0.00, 0.00
3864.0, -39335.47, -888.37, -5678.21, -6442.33, -3860.35, -3473.01, -22926.76, -37900.93, 0.00, 0.00, 0.00
3868.0, -40038.32, -761.08, -6105.04, -6973.27, -3963.72, -3276.79, -22722.09, -38143.23, 0.00, 0.00, 0.00
3872.0, -40379.45, -690.15, -6372.57, -7135.55, -3926.58, -3294.51, -22752.33, -38378.04, 0.00, 0.00, 0.00
3876.0, -39703.00, -794.29, -5959.56, -6623.43, -3813.99, -3480.55, -22950.46, -38152.79, 0.00, 0.00, 0.00
3880.0, -39301.12, -850.39, -5655.17, -6417.68, -3821.97, -3464.25, -22922.81, -37911.55, 0.00, 0.00, 0.00
3884.0, -39883.58, -760.05, -5983.94, -6878.46, -3922.19, -3285.13, -22735.12, -38068.82, 0.00, 0.00, 0.00
3888.0, -40381.20, -678.71, -6344.52, -7160.40, -3929.30, -3273.41, -22735.68, -38345.91, 0.00, 0.00, 0.00
3892.0, -39811.00, -780.28, -6010.21, -6692.47, -3827.76, -3480.43, -22952.40, -38170.68, 0.00, 0.00, 0.00
3896.0, -39244.77, -861.48, -5612.12, -6345.48, -3815.29, -3512.93, -22970.48, -37871.81, 0.00, 0.00, 0.00
3900.0, -39705.55, -766.13, -5860.92, -6742.60, -3907.46, -3316.17, -22762.39, -37972.10, 0.00, 0.00, 0.00
3904.0, -40354.66, -649.16, -6312.22, -7155.02, -3936.52, -3244.29, -22701.93, -38299.82, 0.00, 0.00, 0.00
3908.0, -39957.27, -723.75, -6098.58, -6802.10, -3833.91, -3437.79, -22910.47, -38219.11, 0.00, 0.00, 0.00
3912.0, -39268.88, -843.91, -5629.82, -6347.11, -3800.67, -3534.48, -22997.87, -37885.38, 0.00, 0.00, 0.00
3916.0, -39565.74, -777.42, -5769.05, -6641.35, -3893.58, -3366.87, -22817.87, -37911.75, 0.00, 0.00, 0.00
3920.0, -40298.54, -645.32, -6258.22, -7127.77, -3951.27, -3245.36, -22703.22, -38244.04, 0.00, 0.00, 0.00
3924.0, -40083.56, -687.56, -6168.97, -6889.41, -3859.59, -3403.41, -22874.93, -38246.20, 0.00, 0.00, 0.00
3928.0, -39327.58, -815.19, -5667.15, -6368.44, -3795.10, -3539.02, -23009.02, -37911.06, 0.00, 0.00, 0.00
3932.0, -39417.90, -798.45, -5660.42, -6509.74, -3873.71, -3420.80, -22878.51, -37830.82, 0.00, 0.00, 0.00
3936.0, -40181.13, -661.81, -6151.33, -7035.48, -3959.41, -3268.70, -22728.86, -38141.91, 0.00, 0.00, 0.00
3940.0, -40178.09, -654.77, -6207.06, -6946.65, -3888.64, -3375.38, -22853.34, -38248.91, 0.00, 0.00, 0.00
3944.0, -39399.80, -786.00, -5705.77, -6388.51, -3800.18, -3544.29, -23026.79, -37936.77, 0.00, 0.00, 0.00
3948.0, -39325.12, -787.99, -5600.65, -6420.25, -3857.98, -3449.32, -22923.48, -37807.24, 0.00, 0.00, 0.00
3952.0, -40072.96, -666.82, -6065.41, -6957.92, -3958.29, -3282.49, -22755.51, -38080.42, 0.00, 0.00, 0.00
3956.0, -40269.06, -620.64, -6245.70, -7011.16, -3912.20, -3339.15, -22825.85, -38266.10, 0.00, 0.00, 0.00
3960.0, -39529.71, -736.53, -5782.46, -6466.09, -3802.21, -3526.79, -23019.97, -37997.88, 0.00, 0.00, 0.00
3964.0, -39256.79, -784.35, -5549.58, -6346.40, -3832.61, -3485.69, -22966.44, -37784.68, 0.00, 0.00, 0.00
3968.0, -39947.19, -659.29, -5966.78, -6869.21, -3936.01, -3281.88, -22759.64, -38015.04, 0.00, 0.00, 0.00
3972.0, -40319.44, -593.75, -6254.89, -7054.97, -3912.09, -3303.61, -22798.46, -38259.05, 0.00, 0.00, 0.00
3976.0, -39672.33, -688.14, -5867.04, -6560.68, -3798.03, -3486.00, -22986.15, -38055.21, 0.00, 0.00, 0.00
3980.0, -39240.77, -743.58, -5549.47, -6333.30, -3797.09, -3475.18, -22962.62, -37803.88, 0.00, 0.00, 0.00
3984.0, -39804.79, -642.03, -5869.10, -6792.78, -3894.17, -3286.49, -22766.95, -37956.19, 0.00, 0.00, 0.00
3988.0, -40322.79, -563.44, -6240.38, -7093.93, -3903.89, -3271.18, -22762.32, -38236.95, 0.00, 0.00, 0.00
3992.0, -39796.03, -648.11, -5939.89, -6667.75, -3800.94, -3460.36, -22964.38, -38098.03, 0.00, 0.00, 0.00
3996.0, -39186.09, -763.36, -5506.96, -6282.87, -3791.48, -3532.87, -23028.64, -37773.51, 0.00, 0.00, 0.00
4000.0, -39613.01, -677.95, -5734.23, -6656.66, -3895.95, -3340.98, -22823.57, -37855.81, 0.00, 0.00, 0.00
4004.0, -40283.72, -554.95, -6198.67, -7088.70, -3930.26, -3251.75, -22739.48, -38191.39, 0.00, 0.00, 0.00
4008.0, -39926.38, -611.48, -6014.83, -6767.75, -3822.64, -3421.40, -22919.75, -38138.42, 0.00, 0.00, 0.00
4012.0, -39229.28, -722.56, -5543.39, -6314.14, -3770.87, -3514.61, -23006.78, -37815.71, 0.00, 0.00, 0.00
4016.0, -39470.18, -685.64, -5631.70, -6559.97, -3855.52, -3378.96, -22856.42, -37798.61, 0.00, 0.00, 0.00
4020.0, -40196.88, -563.76, -6106.68, -7033.33, -3927.54, -3265.41, -22744.04, -38110.89, 0.00, 0.00, 0.00
4024.0, -40036.44, -582.13, -6055.29, -6837.13, -3842.51, -3401.78, -22896.03, -38151.95, 0.00, 0.00, 0.00
4028.0, -39266.70, -724.29, -5540.13, -6295.86, -3775.63, -3558.15, -23052.40, -37812.71, 0.00, 0.00, 0.00
4032.0, -39353.20, -701.11, -5536.35, -6436.34, -3850.62, -3425.14, -22904.81, -37743.91, 0.00, 0.00, 0.00
4036.0, -40144.94, -560.94, -6049.39, -6995.58, -3934.26, -3254.70, -22737.22, -38075.77, 0.00, 0.00, 0.00
4040.0, -40183.32, -558.37, -6129.18, -6943.61, -3867.43, -3361.84, -22860.92, -38202.26, 0.00, 0.00, 0.00
4044.0, -39415.73, -690.18, -5641.11, -6401.85, -3778.41, -3540.47, -23043.33, -37904.67, 0.00, 0.00, 0.00
4048.0, -39299.59, -716.35, -5508.23, -6404.18, -3837.93, -3469.28, -22958.64, -37753.37, 0.00, 0.00, 0.00
4052.0, -40046.19, -587.47, -5971.56, -6953.65, -3933.66, -3288.41, -22773.83, -38031.98, 0.00, 0.00, 0.00
4056.0, -40263.89, -551.64, -6164.43, -7025.60, -3887.35, -3352.34, -22852.11, -38222.31, 0.00, 0.00, 0.00
4060.0, -39519.09, -681.55, -5697.84, -6469.58, -3779.12, -3556.18, -23062.60, -37943.98, 0.00, 0.00, 0.00
4064.0, -39216.02, -730.99, -5450.18, -6329.81, -3812.47, -3515.84, -23007.16, -37723.42, 0.00, 0.00, 0.00
4068.0, -39893.66, -609.29, -5857.16, -6853.76, -3913.37, -3314.23, -22798.91, -37952.07, 0.00, 0.00, 0.00
4072.0, -40307.84, -534.65, -6173.69, -7079.49, -3891.91, -3307.81, -22803.52, -38223.45, 0.00, 0.00, 0.00
4076.0, -39670.88, -665.19, -5788.07, -6590.10, -3770.83, -3511.21, -23016.02, -38020.45, 0.00, 0.00, 0.00
4080.0, -39183.46, -777.39, -5422.85, -6302.90, -3783.66, -3550.37, -23045.12, -37726.55, 0.00, 0.00, 0.00
4084.0, -39728.35, -688.19, -5725.31, -6736.06, -3899.26, -3364.76, -22851.62, -37862.31, 0.00, 0.00, 0.00
4088.0, -40304.02, -573.41, -6135.49, -7082.84, -3911.71, -3301.67, -22802.06, -38183.37, 0.00, 0.00, 0.00
4092.0, -39802.46, -669.90, -5845.45, -6662.47, -3798.10, -3502.94, -23015.34, -38050.69, 0.00, 0.00, 0.00
4096.0, -39180.10, -785.15, -5403.69, -6260.48, -3777.69, -3582.92, -23084.43, -37725.05, 0.00, 0.00, 0.00
4100.0, -39577.88, -709.24, -5603.76, -6604.38, -3880.06, -3406.67, -22891.81, -37786.00, 0.00, 0.00, 0.00
4104.0, -40253.50, -590.44, -6064.54, -7030.79, -3920.21, -3314.72, -22809.73, -38112.34, 0.00, 0.00, 0.00
4108.0, -39938.70, -638.05, -5914.92, -6737.69, -3819.11, -3465.82, -22976.86, -38085.94, 0.00, 0.00, 0.00
4112.0, -39213.92, -769.32, -5419.83, -6251.43, -3762.29, -3586.83, -23090.45, -37746.71, 0.00, 0.00, 0.00
4116.0, -39435.88, -727.37, -5501.14, -6486.68, -3848.95, -3434.35, -22920.97, -37733.75, 0.00, 0.00, 0.00
4120.0, -40186.56, -593.51, -5996.70, -6996.54, -3913.05, -3299.77, -22791.00, -38070.65, 0.00, 0.00, 0.00
4124.0, -40046.61, -613.31, -5962.24, -6818.98, -3825.39, -3436.11, -22944.78, -38120.52, 0.00, 0.00, 0.00
4128.0, -39252.21, -767.72, -5441.62, -6258.67, -3754.94, -3605.36, -23114.52, -37771.96, 0.00, 0.00, 0.00
4132.0, -39275.19, -764.36, -5398.53, -6348.10, -3832.63, -3495.92, -22986.78, -37666.93, 0.00, 0.00, 0.00
4136.0, -40065.99, -603.21, -5914.41, -6914.31, -3918.19, -3301.26, -22790.60, -38002.10, 0.00, 0.00, 0.00
4140.0, -40134.46, -592.14, -6017.54, -6881.48, -3851.07, -3397.73, -22904.88, -38142.34, 0.00, 0.00, 0.00
4144.0, -39369.69, -720.69, -5532.75, -6329.16, -3753.10, -3569.77, -23080.28, -37845.10, 0.00, 0.00, 0.00
4148.0, -39220.22, -739.08, -5377.54, -6305.05, -3797.02, -3494.45, -22991.88, -37680.59, 0.00, 0.00, 0.00
4152.0, -39980.39, -586.67, -5851.84, -6876.00, -3888.29, -3282.06, -22775.35, -37974.14, 0.00, 0.00, 0.00
4156.0, -40244.79, -547.30, -6075.79, -6989.95, -3845.42, -3339.17, -22851.08, -38191.22, 0.00, 0.00, 0.00
4160.0, -39513.12, -688.93, -5617.86, -6440.21, -3741.73, -3556.79, -23080.08, -37918.55, 0.00, 0.00, 0.00
4164.0, -39161.53, -759.04, -5337.53, -6258.73, -3778.92, -3543.60, -23054.84, -37671.38, 0.00, 0.00, 0.00
4168.0, -39811.27, -635.28, -5722.49, -6762.43, -3889.11, -3345.65, -22846.88, -37880.62, 0.00, 0.00, 0.00
4172.0, -40231.84, -560.63, -6037.94, -6979.80, -3880.02, -3354.50, -22867.96, -38134.45, 0.00, 0.00, 0.00
4176.0, -39627.83, -652.31, -5682.39, -6501.30, -3767.63, -3538.26, -23062.15, -37955.07, 0.00, 0.00, 0.00
4180.0, -39127.93, -736.15, -5318.64, -6208.22, -3762.87, -3563.92, -23076.32, -37677.60, 0.00, 0.00, 0.00
4184.0, -39644.66, -651.20, -5604.41, -6630.20, -3870.83, -3383.43, -22885.03, -37803.35, 0.00, 0.00, 0.00
4188.0, -40247.31, -540.00, -6032.80, -7002.22, -3891.95, -3325.56, -22836.51, -38133.44, 0.00, 0.00, 0.00
4192.0, -39790.57, -623.17, -5779.51, -6620.45, -3784.28, -3516.85, -23039.53, -38034.60, 0.00, 0.00, 0.00
4196.0, -39147.34, -732.91, -5331.05, -6210.30, -3753.71, -3595.23, -23110.96, -37713.38, 0.00, 0.00, 0.00
4200.0, -39508.65, -654.32, -5506.58, -6538.02, -3844.50, -3416.46, -22919.52, -37762.69, 0.00, 0.00, 0.00
4204.0, -40211.32, -520.97, -5982.02, -6998.35, -3885.56, -3311.37, -22822.07, -38103.78, 0.00, 0.00, 0.00
4208.0, -39926.27, -568.18, -5845.94, -6721.82, -3786.41, -3467.56, -22995.74, -38086.79, 0.00, 0.00, 0.00
4212.0, -39184.37, -708.04, -5343.65, -6215.89, -3730.64, -3602.92, -23129.23, -37743.51, 0.00, 0.00, 0.00
4216.0, -39355.90, -668.00, -5390.10, -6409.94, -3815.82, -3459.13, -22971.33, -37698.14, 0.00, 0.00, 0.00
4220.0, -40119.41, -522.34, -5887.76, -6929.53, -3886.79, -3307.19, -22825.33, -38032.12, 0.00, 0.00, 0.00
4224.0, -40035.86, -533.29, -5889.10, -6789.05, -3805.45, -3430.23, -22962.13, -38108.58, 0.00, 0.00, 0.00
4228.0, -39265.62, -667.96, -5385.70, -6247.27, -3724.56, -3592.93, -23124.91, -37786.34, 0.00, 0.00, 0.00
4232.0, -39269.60, -659.56, -5327.54, -6331.85, -3793.60, -3485.44, -23005.31, -37679.61, 0.00, 0.00, 0.00
4236.0, -40040.42, -534.52, -5814.76, -6883.00, -3879.64, -3316.37, -22837.18, -37983.37, 0.00, 0.00, 0.00
4240.0, -40125.09, -533.85, -5920.17, -6851.46, -3822.60, -3416.87, -22958.26, -38113.41, 0.00, 0.00, 0.00
4244.0, -39345.53, -675.27, -5423.18, -6271.81, -3727.26, -3609.65, -23154.10, -37802.39, 0.00, 0.00, 0.00
4248.0, -39166.76, -689.57, -5254.67, -6223.22, -3773.53, -3531.60, -23060.96, -37635.38, 0.00, 0.00, 0.00
4252.0, -39897.77, -559.22, -5702.06, -6764.26, -3875.97, -3342.08, -22864.87, -37899.06, 0.00, 0.00, 0.00
4256.0, -40207.64, -498.69, -5954.50, -6903.87, -3837.35, -3371.02, -22908.17, -38134.20, 0.00, 0.00, 0.00
4260.0, -39509.14, -619.46, -5523.21, -6372.28, -3721.90, -3568.21, -23113.65, -37890.65, 0.00, 0.00, 0.00
4264.0, -39149.70, -667.74, -5243.76, -6192.19, -3739.78, -3546.46, -23079.96, -37662.73, 0.00, 0.00, 0.00
4268.0, -39757.40, -567.87, -5595.58, -6660.86, -3847.90, -3370.67, -22897.75, -37834.02, 0.00, 0.00, 0.00
4272.0, -40235.51, -457.47, -5956.20, -6933.29, -3844.92, -3336.36, -22874.57, -38127.36, 0.00, 0.00, 0.00
4276.0, -39671.82, -531.50, -5634.96, -6496.44, -3725.90, -3514.86, -23064.09, -37983.86, 0.00, 0.00, 0.00
4280.0, -39140.79, -613.02, -5257.85, -6188.62, -3713.32, -3554.06, -23093.84, -37702.38, 0.00, 0.00, 0.00
4284.0, -39620.25, -526.83, -5515.72, -6593.09, -3813.81, -3379.18, -22909.53, -37811.42, 0.00, 0.00, 0.00
4288.0, -40225.52, -422.89, -5937.61, -6967.96, -3843.20, -3323.75, -22862.62, -38126.40, 0.00, 0.00, 0.00
4292.0, -39779.96, -500.68, -5693.59, -6588.00, -3742.37, -3518.21, -23070.58, -38032.92, 0.00, 0.00, 0.00
4296.0, -39103.23, -621.09, -5227.42, -6145.99, -3714.86, -3616.31, -23160.01, -37703.35, 0.00, 0.00, 0.00
4300.0, -39418.75, -557.14, -5372.93, -6437.95, -3812.13, -3449.28, -22979.60, -37729.21, 0.00, 0.00, 0.00
4304.0, -40149.01, -409.39, -5867.00, -6923.43, -3865.04, -3320.33, -22856.94, -38080.46, 0.00, 0.00, 0.00
4308.0, -39893.10, -451.89, -5750.84, -6665.65, -3767.86, -3487.61, -23037.21, -38073.31, 0.00, 0.00, 0.00
4312.0, -39136.70, -582.51, -5243.21, -6142.08, -3707.17, -3617.09, -23160.03, -37728.04, 0.00, 0.00, 0.00
4316.0, -39297.67, -530.23, -5289.47, -6339.76, -3786.54, -3460.59, -22992.79, -37696.57, 0.00, 0.00, 0.00
4320.0, -40061.10, -403.05, -5784.01, -6864.71, -3861.38, -3327.41, -22864.52, -38021.72, 0.00, 0.00, 0.00
4324.0, -40009.09, -411.70, -5804.90, -6743.92, -3787.77, -3443.55, -22997.08, -38110.75, 0.00, 0.00, 0.00
4328.0, -39238.33, -539.26, -5307.09, -6200.93, -3702.77, -3606.03, -23161.14, -37799.61, 0.00, 0.00, 0.00
4332.0, -39201.63, -528.08, -5228.45, -6260.32, -3762.94, -3499.81, -23041.90, -37685.73, 0.00, 0.00, 0.00
4336.0, -39973.99, -389.39, -5717.96, -6822.27, -3855.88, -3323.73, -22866.68, -37997.81, 0.00, 0.00, 0.00
4340.0, -40116.91, -371.42, -5864.83, -6845.47, -3803.02, -3413.07, -22967.38, -38166.54, 0.00, 0.00, 0.00
4344.0, -39348.19, -509.42, -5379.35, -6282.54, -3702.77, -3608.17, -23164.16, -37874.23, 0.00, 0.00, 0.00
4348.0, -39112.51, -545.14, -5172.57, -6194.09, -3746.38, -3555.65, -23098.69, -37678.20, 0.00, 0.00, 0.00
4352.0, -39823.18, -417.35, -5606.29, -6730.62, -3851.12, -3362.51, -22901.17, -37928.61, 0.00, 0.00, 0.00
4356.0, -40158.19, -360.49, -5874.42, -6891.51, -3827.00, -3391.36, -22944.04, -38166.63, 0.00, 0.00, 0.00
4360.0, -39484.71, -470.44, -5468.73, -6383.41, -3717.25, -3587.45, -23147.89, -37948.16, 0.00, 0.00, 0.00
4364.0, -39059.34, -552.36, -5146.38, -6143.62, -3736.61, -3602.48, -23150.26, -37675.74, 0.00, 0.00, 0.00
4368.0, -39671.75, -435.95, -5506.49, -6626.60, -3846.42, -3391.74, -22928.35, -37862.18, 0.00, 0.00, 0.00
4372.0, -40200.37, -330.98, -5896.66, -6945.40, -3842.02, -3359.40, -22910.18, -38178.54, 0.00, 0.00, 0.00
4376.0, -39647.68, -419.45, -5574.79, -6508.76, -3720.02, -3551.04, -23110.88, -38027.54, 0.00, 0.00, 0.00
4380.0, -39083.61, -514.49, -5171.55, -6171.52, -3701.76, -3596.55, -23144.89, -37729.32, 0.00, 0.00, 0.00
4384.0, -39541.93, -431.08, -5414.69, -6570.88, -3801.25, -3418.61, -22955.15, -37828.56, 0.00, 0.00, 0.00
4388.0, -40139.66, -353.52, -5821.29, -6931.86, -3835.49, -3382.74, -22926.38, -38109.70, 0.00, 0.00, 0.00
4392.0, -39738.20, -413.10, -5609.19, -6577.36, -3734.33, -3551.11, -23105.53, -38032.09, 0.00, 0.00, 0.00
4396.0, -39063.32, -517.98, -5151.29, -6136.45, -3693.67, -3633.37, -23183.59, -37712.73, 0.00, 0.00, 0.00
4400.0, -39351.30, -462.52, -5278.77, -6414.19, -3786.74, -3478.47, -23017.71, -37726.48, 0.00, 0.00, 0.00
4404.0, -40072.23, -342.00, -5757.79, -6887.24, -3847.38, -3362.80, -22907.99, -38051.07, 0.00, 0.00, 0.00
4408.0, -39866.44, -366.88, -5678.89, -6664.89, -3752.39, -3497.80, -23061.12, -38071.03, 0.00, 0.00, 0.00
4412.0, -39111.46, -495.72, -5179.84, -6147.15, -3684.91, -3635.42, -23196.84, -37738.28, 0.00, 0.00, 0.00
4416.0, -39206.28, -478.73, -5177.65, -6292.60, -3761.28, -3521.29, -23067.76, -37664.25, 0.00, 0.00, 0.00
4420.0, -39975.71, -337.82, -5678.15, -6825.86, -3846.94, -3354.42, -22901.69, -37991.88, 0.00, 0.00, 0.00
4424.0, -39977.50, -321.98, -5742.97, -6753.71, -3770.05, -3449.34, -23016.51, -38117.37, 0.00, 0.00, 0.00
4428.0, -39196.44, -455.01, -5241.84, -6203.86, -3676.10, -3622.97, -23192.21, -37804.27, 0.00, 0.00, 0.00
4432.0, -39103.88, -460.54, -5121.23, -6220.87, -3730.60, -3535.17, -23094.07, -37655.36, 0.00, 0.00, 0.00
4436.0, -39840.46, -334.56, -5572.38, -6745.13, -3823.15, -3359.62, -22918.23, -37918.41, 0.00, 0.00, 0.00
4440.0, -40038.63, -291.09, -5754.17, -6803.31, -3778.23, -3410.74, -22983.76, -38111.64, 0.00, 0.00, 0.00
4444.0, -39314.46, -399.34, -5306.91, -6277.38, -3668.79, -3590.72, -23172.48, -37860.03, 0.00, 0.00, 0.00
