%OpenBCI Raw EEG Data
%
%Sample Rate = 250.0 Hz
%First Column = SampleIndex
%Other Columns = EEG data in microvolts followed by Accel Data (in G) interleaved with Aux Data
0, 45628.02, 55854.35, 49503.50, -187500.02, -187500.02, 43574.46, 43557.63, -187500.02, 0.00, 0.00, 0.00
1, 45362.26, 55477.12, 49214.02, -187500.02, -187500.02, 43773.57, 43968.47, -187500.02, 0.00, 0.00, 0.00
2, 45394.18, 55332.25, 48830.36, -187500.02, -187500.02, 43990.33, 44105.18, -187500.02, 0.00, 0.00, 0.00
3, 45651.85, 55687.02, 49084.27, -187500.02, -187500.02, 43817.53, 43693.05, -187500.02, 0.00, 0.00, 0.00
4, 45659.88, 55886.04, 49505.54, -187500.02, -187500.02, 43591.55, 43529.21, -187500.02, 0.00, 0.00, 0.00
5, 45410.47, 55559.86, 49306.89, -187500.02, -187500.02, 43751.53, 43924.17, -187500.02, 0.00, 0.00, 0.00
6, 45354.46, 55318.69, 48888.72, -187500.02, -187500.02, 43969.14, 44098.27, -187500.02, 0.00, 0.00, 0.00
7, 45605.00, 55614.27, 49034.56, -187500.02, -187500.02, 43858.10, 43768.47, -187500.02, 0.00, 0.00, 0.00
8, 45700.00, 55895.30, 49479.56, -187500.02, -187500.02, 43630.65, 43537.26, -187500.02, 0.00, 0.00, 0.00
9, 45464.18, 55636.55, 49412.17, -187500.02, -187500.02, 43705.44, 43833.69, -187500.02, 0.00, 0.00, 0.00
10, 45352.22, 55321.44, 48950.90, -187500.02, -187500.02, 43967.91, 44142.01, -187500.02, 0.00, 0.00, 0.00
11, 45571.18, 55546.05, 48983.71, -187500.02, -187500.02, 43910.69, 43842.74, -187500.02, 0.00, 0.00, 0.00
12, 45706.81, 55881.57, 49457.84, -187500.02, -187500.02, 43640.19, 43504.74, -187500.02, 0.00, 0.00, 0.00
13, 45512.17, 55705.15, 49499.79, -187500.02, -187500.02, 43667.04, 43764.40, -187500.02, 0.00, 0.00, 0.00
14, 45351.15, 55337.78, 49037.20, -187500.02, -187500.02, 43938.81, 44136.11, -187500.02, 0.00, 0.00, 0.00
15, 45553.39, 55473.83, 48933.22, -187500.02, -187500.02, 43970.11, 43964.07, -187500.02, 0.00, 0.00, 0.00
16, 45751.18, 55852.11, 49374.51, -187500.02, -187500.02, 43711.88, 43566.86, -187500.02, 0.00, 0.00, 0.00
17, 45577.51, 55772.92, 49555.49, -187500.02, -187500.02, 43621.37, 43657.83, -187500.02, 0.00, 0.00, 0.00
18, 45360.09, 55369.36, 49130.54, -187500.02, -187500.02, 43882.20, 44096.88, -187500.02, 0.00, 0.00, 0.00
19, 45501.63, 55399.76, 48911.47, -187500.02, -187500.02, 43983.27, 44004.35, -187500.02, 0.00, 0.00, 0.00
20, 45714.59, 55788.68, 49328.42, -187500.02, -187500.02, 43716.75, 43555.68, -187500.02, 0.00, 0.00, 0.00
21, 45607.48, 55807.83, 49595.79, -187500.02, -187500.02, 43593.75, 43602.75, -187500.02, 0.00, 0.00, 0.00
22, 45373.21, 55425.55, 49257.34, -187500.02, -187500.02, 43826.81, 44025.04, -187500.02, 0.00, 0.00, 0.00
23, 45445.97, 55352.66, 48941.60, -187500.02, -187500.02, 43988.99, 44051.18, -187500.02, 0.00, 0.00, 0.00
24, 45692.20, 55735.44, 49292.79, -187500.02, -187500.02, 43762.30, 43612.88, -187500.02, 0.00, 0.00, 0.00
25, 45647.29, 55850.73, 49645.79, -187500.02, -187500.02, 43579.62, 43542.16, -187500.02, 0.00, 0.00, 0.00
26, 45401.71, 55488.72, 49379.54, -187500.02, -187500.02, 43772.27, 43964.92, -187500.02, 0.00, 0.00, 0.00
27, 45416.87, 55321.10, 48973.70, -187500.02, -187500.02, 43995.83, 44123.04, -187500.02, 0.00, 0.00, 0.00
28, 45683.90, 55676.59, 49217.15, -187500.02, -187500.02, 43837.58, 43717.21, -187500.02, 0.00, 0.00, 0.00
29, 45695.52, 55886.85, 49650.11, -187500.02, -187500.02, 43590.46, 43506.39, -187500.02, 0.00, 0.00, 0.00
30, 45454.06, 55578.39, 49502.99, -187500.02, -187500.02, 43725.96, 43880.12, -187500.02, 0.00, 0.00, 0.00
31, 45385.86, 55313.17, 49065.18, -187500.02, -187500.02, 43969.75, 44116.04, -187500.02, 0.00, 0.00, 0.00
32, 45638.64, 55595.22, 49190.45, -187500.02, -187500.02, 43874.21, 43777.14, -187500.02, 0.00, 0.00, 0.00
33, 45732.47, 55884.86, 49648.32, -187500.02, -187500.02, 43614.29, 43504.92, -187500.02, 0.00, 0.00, 0.00
34, 45510.36, 55650.95, 49603.64, -187500.02, -187500.02, 43687.36, 43807.18, -187500.02, 0.00, 0.00, 0.00
35, 45378.60, 55320.43, 49147.48, -187500.02, -187500.02, 43941.85, 44109.45, -187500.02, 0.00, 0.00, 0.00
36, 45607.86, 55526.27, 49154.05, -187500.02, -187500.02, 43911.32, 43852.20, -187500.02, 0.00, 0.00, 0.00
37, 45772.82, 55883.11, 49625.21, -187500.02, -187500.02, 43656.58, 43508.54, -187500.02, 0.00, 0.00, 0.00
38, 45580.10, 55729.45, 49700.67, -187500.02, -187500.02, 43646.63, 43718.13, -187500.02, 0.00, 0.00, 0.00
39, 45412.11, 55356.64, 49244.82, -187500.02, -187500.02, 43926.14, 44121.00, -187500.02, 0.00, 0.00, 0.00
40, 45597.36, 55470.55, 49128.42, -187500.02, -187500.02, 43960.38, 43943.13, -187500.02, 0.00, 0.00, 0.00
41, 45800.18, 55855.00, 49572.99, -187500.02, -187500.02, 43695.11, 43546.38, -187500.02, 0.00, 0.00, 0.00
42, 45638.75, 55795.54, 49766.67, -187500.02, -187500.02, 43606.42, 43644.71, -187500.02, 0.00, 0.00, 0.00
43, 45411.68, 55400.05, 49367.20, -187500.02, -187500.02, 43855.89, 44068.09, -187500.02, 0.00, 0.00, 0.00
44, 45533.41, 55406.46, 49117.58, -187500.02, -187500.02, 43984.92, 44025.96, -187500.02, 0.00, 0.00, 0.00
45, 45759.96, 55794.11, 49497.76, -187500.02, -187500.02, 43752.49, 43604.90, -187500.02, 0.00, 0.00, 0.00
46, 45661.75, 55834.43, 49777.16, -187500.02, -187500.02, 43614.24, 43607.16, -187500.02, 0.00, 0.00, 0.00
47, 45413.73, 55458.12, 49463.65, -187500.02, -187500.02, 43823.77, 44005.31, -187500.02, 0.00, 0.00, 0.00
48, 45459.07, 55356.06, 49129.11, -187500.02, -187500.02, 43986.20, 44059.29, -187500.02, 0.00, 0.00, 0.00
49, 45694.30, 55721.06, 49432.85, -187500.02, -187500.02, 43779.38, 43640.39, -187500.02, 0.00, 0.00, 0.00
50, 45653.95, 55856.88, 49792.84, -187500.02, -187500.02, 43582.17, 43536.68, -187500.02, 0.00, 0.00, 0.00
51, 45403.41, 55510.53, 49563.52, -187500.02, -187500.02, 43747.10, 43916.17, -187500.02, 0.00, 0.00, 0.00
52, 45382.91, 55307.78, 49168.61, -187500.02, -187500.02, 43945.65, 44058.37, -187500.02, 0.00, 0.00, 0.00
53, 45634.50, 55635.59, 49389.53, -187500.02, -187500.02, 43797.32, 43683.98, -187500.02, 0.00, 0.00, 0.00
54, 45676.53, 55867.73, 49815.89, -187500.02, -187500.02, 43574.37, 43500.49, -187500.02, 0.00, 0.00, 0.00
55, 45443.82, 55578.48, 49690.52, -187500.02, -187500.02, 43694.17, 43846.90, -187500.02, 0.00, 0.00, 0.00
56, 45365.57, 55297.79, 49247.95, -187500.02, -187500.02, 43937.25, 44099.50, -187500.02, 0.00, 0.00, 0.00
57, 45596.62, 55562.84, 49350.79, -187500.02, -187500.02, 43844.44, 43771.20, -187500.02, 0.00, 0.00, 0.00
58, 45685.36, 55873.04, 49830.31, -187500.02, -187500.02, 43577.00, 43468.09, -187500.02, 0.00, 0.00, 0.00
59, 45458.06, 55655.57, 49816.54, -187500.02, -187500.02, 43636.37, 43768.47, -187500.02, 0.00, 0.00, 0.00
60, 45303.30, 55311.51, 49357.50, -187500.02, -187500.02, 43899.52, 44103.59, -187500.02, 0.00, 0.00, 0.00
61, 45518.05, 55499.38, 49320.02, -187500.02, -187500.02, 43903.61, 43889.73, -187500.02, 0.00, 0.00, 0.00
62, 45684.30, 55861.39, 49777.91, -187500.02, -187500.02, 43641.06, 43527.43, -187500.02, 0.00, 0.00, 0.00
63, 45490.36, 55729.34, 49889.38, -187500.02, -187500.02, 43599.94, 43687.98, -187500.02, 0.00, 0.00, 0.00
64, 45300.46, 55344.21, 49451.71, -187500.02, -187500.02, 43860.16, 44092.75, -187500.02, 0.00, 0.00, 0.00
65, 45468.50, 55429.26, 49297.64, -187500.02, -187500.02, 43922.65, 43951.66, -187500.02, 0.00, 0.00, 0.00
66, 45656.41, 55813.55, 49742.93, -187500.02, -187500.02, 43648.08, 43520.99, -187500.02, 0.00, 0.00, 0.00
67, 45498.49, 55773.25, 49956.73, -187500.02, -187500.02, 43551.39, 43611.58, -187500.02, 0.00, 0.00, 0.00
68, 45268.05, 55380.31, 49580.17, -187500.02, -187500.02, 43791.67, 44034.37, -187500.02, 0.00, 0.00, 0.00
69, 45382.36, 55364.38, 49317.00, -187500.02, -187500.02, 43925.60, 44009.38, -187500.02, 0.00, 0.00, 0.00
70, 45611.88, 55757.83, 49699.79, -187500.02, -187500.02, 43689.63, 43574.77, -187500.02, 0.00, 0.00, 0.00
71, 45513.29, 55822.43, 50015.63, -187500.02, -187500.02, 43521.32, 43539.54, -187500.02, 0.00, 0.00, 0.00
72, 45276.03, 55446.88, 49708.73, -187500.02, -187500.02, 43736.46, 43970.89, -187500.02, 0.00, 0.00, 0.00
73, 45327.79, 55324.12, 49355.78, -187500.02, -187500.02, 43924.26, 44050.86, -187500.02, 0.00, 0.00, 0.00
74, 45588.59, 55686.08, 49630.06, -187500.02, -187500.02, 43755.68, 43667.28, -187500.02, 0.00, 0.00, 0.00
75, 45565.01, 55856.20, 50034.16, -187500.02, -187500.02, 43535.77, 43490.30, -187500.02, 0.00, 0.00, 0.00
76, 45312.21, 55517.53, 49836.59, -187500.02, -187500.02, 43689.86, 43884.50, -187500.02, 0.00, 0.00, 0.00
77, 45292.86, 55298.17, 49411.77, -187500.02, -187500.02, 43931.05, 44091.34, -187500.02, 0.00, 0.00, 0.00
78, 45550.93, 55625.98, 49602.92, -187500.02, -187500.02, 43811.74, 43725.91, -187500.02, 0.00, 0.00, 0.00
79, 45585.24, 55882.18, 50069.22, -187500.02, -187500.02, 43551.75, 43473.38, -187500.02, 0.00, 0.00, 0.00
80, 45347.53, 55603.72, 49982.39, -187500.02, -187500.02, 43647.48, 43818.05, -187500.02, 0.00, 0.00, 0.00
81, 45267.62, 55307.31, 49530.57, -187500.02, -187500.02, 43914.00, 44117.67, -187500.02, 0.00, 0.00, 0.00
82, 45504.04, 55556.67, 49603.01, -187500.02, -187500.02, 43847.71, 43805.57, -187500.02, 0.00, 0.00, 0.00
83, 45600.89, 55872.45, 50083.29, -187500.02, -187500.02, 43566.03, 43463.61, -187500.02, 0.00, 0.00, 0.00
84, 45386.54, 55668.11, 50105.93, -187500.02, -187500.02, 43595.71, 43730.61, -187500.02, 0.00, 0.00, 0.00
85, 45254.61, 55310.75, 49646.11, -187500.02, -187500.02, 43875.33, 44102.02, -187500.02, 0.00, 0.00, 0.00
86, 45447.73, 55471.69, 49598.56, -187500.02, -187500.02, 43860.91, 43855.15, -187500.02, 0.00, 0.00, 0.00
87, 45614.66, 55843.21, 50054.88, -187500.02, -187500.02, 43607.85, 43509.41, -187500.02, 0.00, 0.00, 0.00
88, 45449.84, 55745.83, 50202.84, -187500.02, -187500.02, 43574.90, 43672.87, -187500.02, 0.00, 0.00, 0.00
89, 45272.72, 55361.94, 49779.43, -187500.02, -187500.02, 43851.73, 44104.19, -187500.02, 0.00, 0.00, 0.00
90, 45435.82, 55427.81, 49600.80, -187500.02, -187500.02, 43937.11, 43988.48, -187500.02, 0.00, 0.00, 0.00
91, 45642.48, 55816.53, 50020.14, -187500.02, -187500.02, 43681.23, 43574.70, -187500.02, 0.00, 0.00, 0.00
92, 45511.59, 55807.23, 50257.92, -187500.02, -187500.02, 43568.22, 43624.41, -187500.02, 0.00, 0.00, 0.00
93, 45283.76, 55421.91, 49910.53, -187500.02, -187500.02, 43795.65, 44023.97, -187500.02, 0.00, 0.00, 0.00
94, 45380.54, 55380.34, 49639.85, -187500.02, -187500.02, 43935.50, 44026.92, -187500.02, 0.00, 0.00, 0.00
95, 45620.22, 55763.64, 49985.47, -187500.02, -187500.02, 43730.29, 43629.91, -187500.02, 0.00, 0.00, 0.00
96, 45550.98, 55859.89, 50318.71, -187500.02, -187500.02, 43563.82, 43567.59, -187500.02, 0.00, 0.00, 0.00
97, 45313.94, 55503.05, 50054.96, -187500.02, -187500.02, 43754.57, 43974.30, -187500.02, 0.00, 0.00, 0.00
98, 45355.09, 55362.70, 49688.17, -187500.02, -187500.02, 43958.97, 44099.92, -187500.02, 0.00, 0.00, 0.00
99, 45607.64, 55719.77, 49952.62, -187500.02, -187500.02, 43785.57, 43690.84, -187500.02, 0.00, 0.00, 0.00
100, 45587.12, 55899.05, 50368.85, -187500.02, -187500.02, 43546.70, 43496.74, -187500.02, 0.00, 0.00, 0.00
101, 45347.98, 55566.86, 50178.61, -187500.02, -187500.02, 43708.88, 43897.98, -187500.02, 0.00, 0.00, 0.00
102, 45323.03, 55328.70, 49744.54, -187500.02, -187500.02, 43954.08, 44125.45, -187500.02, 0.00, 0.00, 0.00
103, 45580.10, 55634.21, 49906.28, -187500.02, -187500.02, 43832.95, 43764.74, -187500.02, 0.00, 0.00, 0.00
104, 45625.18, 55905.82, 50383.13, -187500.02, -187500.02, 43556.38, 43473.61, -187500.02, 0.00, 0.00, 0.00
105, 45382.94, 55648.93, 50325.38, -187500.02, -187500.02, 43642.14, 43797.86, -187500.02, 0.00, 0.00, 0.00
106, 45265.23, 55336.50, 49887.39, -187500.02, -187500.02, 43899.00, 44094.80, -187500.02, 0.00, 0.00, 0.00
107, 45485.13, 55559.39, 49924.30, -187500.02, -187500.02, 43857.59, 43833.07, -187500.02, 0.00, 0.00, 0.00
108, 45614.32, 55894.36, 50372.20, -187500.02, -187500.02, 43615.65, 43532.28, -187500.02, 0.00, 0.00, 0.00
109, 45396.57, 55723.63, 50431.25, -187500.02, -187500.02, 43613.93, 43736.02, -187500.02, 0.00, 0.00, 0.00
110, 45231.14, 55367.10, 49995.98, -187500.02, -187500.02, 43887.54, 44106.79, -187500.02, 0.00, 0.00, 0.00
111, 45395.14, 55504.72, 49936.03, -187500.02, -187500.02, 43886.22, 43888.52, -187500.02, 0.00, 0.00, 0.00
112, 45556.27, 55874.62, 50388.18, -187500.02, -187500.02, 43625.29, 43528.88, -187500.02, 0.00, 0.00, 0.00
113, 45393.95, 55788.23, 50543.66, -187500.02, -187500.02, 43575.35, 43667.24, -187500.02, 0.00, 0.00, 0.00
114, 45196.12, 55402.91, 50155.99, -187500.02, -187500.02, 43823.50, 44060.29, -187500.02, 0.00, 0.00, 0.00
115, 45341.16, 55439.66, 49961.46, -187500.02, -187500.02, 43924.28, 43985.53, -187500.02, 0.00, 0.00, 0.00
116, 45545.21, 55826.48, 50368.58, -187500.02, -187500.02, 43677.05, 43561.38, -187500.02, 0.00, 0.00, 0.00
117, 45425.36, 55838.30, 50627.55, -187500.02, -187500.02, 43557.94, 43605.82, -187500.02, 0.00, 0.00, 0.00
118, 45210.63, 55463.39, 50299.20, -187500.02, -187500.02, 43796.66, 44024.22, -187500.02, 0.00, 0.00, 0.00
119, 45312.86, 55405.46, 50001.50, -187500.02, -187500.02, 43969.37, 44077.57, -187500.02, 0.00, 0.00, 0.00
120, 45572.99, 55790.40, 50333.82, -187500.02, -187500.02, 43775.29, 43665.67, -187500.02, 0.00, 0.00, 0.00
121, 45508.02, 55899.88, 50695.61, -187500.02, -187500.02, 43566.54, 43561.40, -187500.02, 0.00, 0.00, 0.00
122, 45284.72, 55543.28, 50444.55, -187500.02, -187500.02, 43760.42, 43970.51, -187500.02, 0.00, 0.00, 0.00
123, 45305.66, 55373.56, 50063.70, -187500.02, -187500.02, 43966.10, 44106.50, -187500.02, 0.00, 0.00, 0.00
124, 45545.63, 55709.80, 50293.93, -187500.02, -187500.02, 43808.41, 43718.47, -187500.02, 0.00, 0.00, 0.00
125, 45545.34, 55913.73, 50705.40, -187500.02, -187500.02, 43575.73, 43529.68, -187500.02, 0.00, 0.00, 0.00
126, 45313.29, 55608.72, 50563.55, -187500.02, -187500.02, 43700.57, 43888.34, -187500.02, 0.00, 0.00, 0.00
127, 45284.36, 55359.37, 50131.99, -187500.02, -187500.02, 43963.62, 44153.95, -187500.02, 0.00, 0.00, 0.00
128, 45519.97, 55645.67, 50266.23, -187500.02, -187500.02, 43857.14, 43797.91, -187500.02, 0.00, 0.00, 0.00
129, 45570.29, 55926.99, 50734.86, -187500.02, -187500.02, 43575.98, 43486.68, -187500.02, 0.00, 0.00, 0.00
130, 45339.11, 55683.27, 50702.96, -187500.02, -187500.02, 43638.32, 43790.44, -187500.02, 0.00, 0.00, 0.00
131, 45239.88, 55356.44, 50254.30, -187500.02, -187500.02, 43917.58, 44130.03, -187500.02, 0.00, 0.00, 0.00
132, 45469.28, 55558.10, 50250.48, -187500.02, -187500.02, 43900.95, 43889.46, -187500.02, 0.00, 0.00, 0.00
133, 45590.29, 55897.57, 50723.19, -187500.02, -187500.02, 43609.73, 43495.91, -187500.02, 0.00, 0.00, 0.00
134, 45384.23, 55733.38, 50797.87, -187500.02, -187500.02, 43590.53, 43707.58, -187500.02, 0.00, 0.00, 0.00
135, 45224.21, 55363.68, 50377.52, -187500.02, -187500.02, 43853.85, 44076.25, -187500.02, 0.00, 0.00, 0.00
136, 45400.17, 55474.48, 50278.08, -187500.02, -187500.02, 43888.01, 43907.52, -187500.02, 0.00, 0.00, 0.00
137, 45563.71, 55841.90, 50724.96, -187500.02, -187500.02, 43611.00, 43486.19, -187500.02, 0.00, 0.00, 0.00
138, 45392.34, 55770.30, 50925.45, -187500.02, -187500.02, 43511.76, 43576.04, -187500.02, 0.00, 0.00, 0.00
139, 45216.59, 55387.73, 50535.15, -187500.02, -187500.02, 43796.43, 44048.54, -187500.02, 0.00, 0.00, 0.00
140, 45370.08, 55404.05, 50303.34, -187500.02, -187500.02, 43926.63, 44000.04, -187500.02, 0.00, 0.00, 0.00
141, 45574.98, 55784.72, 50683.88, -187500.02, -187500.02, 43675.98, 43567.37, -187500.02, 0.00, 0.00, 0.00
142, 45460.61, 55816.91, 50969.66, -187500.02, -187500.02, 43515.25, 43548.30, -187500.02, 0.00, 0.00, 0.00
143, 45240.22, 55447.03, 50683.27, -187500.02, -187500.02, 43718.58, 43945.16, -187500.02, 0.00, 0.00, 0.00
144, 45303.48, 55352.33, 50384.03, -187500.02, -187500.02, 43880.32, 43998.58, -187500.02, 0.00, 0.00, 0.00
145, 45512.48, 55698.18, 50699.77, -187500.02, -187500.02, 43656.18, 43561.94, -187500.02, 0.00, 0.00, 0.00
146, 45452.14, 55815.75, 51060.82, -187500.02, -187500.02, 43450.54, 43451.88, -187500.02, 0.00, 0.00, 0.00
147, 45210.07, 55468.33, 50849.34, -187500.02, -187500.02, 43614.06, 43839.41, -187500.02, 0.00, 0.00, 0.00
148, 45234.88, 55280.87, 50436.35, -187500.02, -187500.02, 43875.13, 44065.81, -187500.02, 0.00, 0.00, 0.00
149, 45471.79, 55612.46, 50642.75, -187500.02, -187500.02, 43727.97, 43662.63, -187500.02, 0.00, 0.00, 0.00
150, 45468.32, 55832.51, 51071.36, -187500.02, -187500.02, 43464.82, 43433.93, -187500.02, 0.00, 0.00, 0.00
151, 45251.13, 55548.04, 50956.12, -187500.02, -187500.02, 43595.13, 43790.44, -187500.02, 0.00, 0.00, 0.00
152, 45197.64, 55283.26, 50544.02, -187500.02, -187500.02, 43850.72, 44046.48, -187500.02, 0.00, 0.00, 0.00
153, 45411.68, 55538.63, 50657.19, -187500.02, -187500.02, 43747.86, 43698.87, -187500.02, 0.00, 0.00, 0.00
154, 45466.82, 55821.22, 51120.11, -187500.02, -187500.02, 43464.06, 43390.90, -187500.02, 0.00, 0.00, 0.00
155, 45254.93, 55597.21, 51113.32, -187500.02, -187500.02, 43516.57, 43673.77, -187500.02, 0.00, 0.00, 0.00
156, 45158.21, 55265.91, 50672.27, -187500.02, -187500.02, 43808.28, 44036.98, -187500.02, 0.00, 0.00, 0.00
157, 45358.91, 55450.90, 50669.41, -187500.02, -187500.02, 43784.74, 43783.24, -187500.02, 0.00, 0.00, 0.00
158, 45501.36, 55802.38, 51119.64, -187500.02, -187500.02, 43527.25, 43437.86, -187500.02, 0.00, 0.00, 0.00
159, 45328.35, 55680.70, 51233.15, -187500.02, -187500.02, 43512.56, 43629.44, -187500.02, 0.00, 0.00, 0.00
160, 45203.32, 55328.97, 50814.32, -187500.02, -187500.02, 43824.59, 44074.44, -187500.02, 0.00, 0.00, 0.00
161, 45382.40, 55431.34, 50683.43, -187500.02, -187500.02, 43891.14, 43931.66, -187500.02, 0.00, 0.00, 0.00
162, 45544.29, 55811.07, 51119.93, -187500.02, -187500.02, 43605.46, 43488.91, -187500.02, 0.00, 0.00, 0.00
163, 45391.92, 55770.71, 51339.83, -187500.02, -187500.02, 43499.36, 43564.98, -187500.02, 0.00, 0.00, 0.00
164, 45214.07, 55393.99, 50986.79, -187500.02, -187500.02, 43764.27, 44007.10, -187500.02, 0.00, 0.00, 0.00
165, 45349.96, 55390.97, 50749.30, -187500.02, -187500.02, 43908.57, 43989.91, -187500.02, 0.00, 0.00, 0.00
166, 45545.86, 55768.52, 51127.76, -187500.02, -187500.02, 43660.51, 43541.93, -187500.02, 0.00, 0.00, 0.00
167, 45460.77, 55834.01, 51438.27, -187500.02, -187500.02, 43512.56, 43538.22, -187500.02, 0.00, 0.00, 0.00
168, 45279.87, 55487.24, 51166.52, -187500.02, -187500.02, 43753.05, 43976.30, -187500.02, 0.00, 0.00, 0.00
169, 45365.01, 55390.35, 50850.73, -187500.02, -187500.02, 43956.89, 44080.14, -187500.02, 0.00, 0.00, 0.00
170, 45604.46, 55751.53, 51132.09, -187500.02, -187500.02, 43782.68, 43693.32, -187500.02, 0.00, 0.00, 0.00
171, 45543.85, 55905.11, 51539.81, -187500.02, -187500.02, 43527.88, 43491.29, -187500.02, 0.00, 0.00, 0.00
172, 45320.30, 55579.93, 51361.91, -187500.02, -187500.02, 43689.75, 43904.84, -187500.02, 0.00, 0.00, 0.00
173, 45348.52, 55387.09, 50970.43, -187500.02, -187500.02, 43959.87, 44140.71, -187500.02, 0.00, 0.00, 0.00
174, 45597.96, 55698.78, 51149.37, -187500.02, -187500.02, 43837.78, 43783.13, -187500.02, 0.00, 0.00, 0.00
175, 45621.77, 55930.39, 51574.10, -187500.02, -187500.02, 43580.40, 43533.95, -187500.02, 0.00, 0.00, 0.00
176, 45396.01, 55654.86, 51485.23, -187500.02, -187500.02, 43672.09, 43848.69, -187500.02, 0.00, 0.00, 0.00
177, 45342.37, 55373.36, 51048.43, -187500.02, -187500.02, 43952.69, 44163.65, -187500.02, 0.00, 0.00, 0.00
178, 45573.21, 55619.27, 51107.84, -187500.02, -187500.02, 43902.16, 43877.84, -187500.02, 0.00, 0.00, 0.00
179, 45653.28, 55924.71, 51559.53, -187500.02, -187500.02, 43623.52, 43538.56, -187500.02, 0.00, 0.00, 0.00
180, 45439.26, 55727.77, 51588.52, -187500.02, -187500.02, 43640.84, 43782.53, -187500.02, 0.00, 0.00, 0.00
181, 45334.90, 55396.79, 51151.03, -187500.02, -187500.02, 43942.72, 44183.52, -187500.02, 0.00, 0.00, 0.00
182, 45520.93, 55562.41, 51116.88, -187500.02, -187500.02, 43933.22, 43931.37, -187500.02, 0.00, 0.00, 0.00
183, 45631.22, 55909.60, 51579.91, -187500.02, -187500.02, 43627.32, 43519.02, -187500.02, 0.00, 0.00, 0.00
184, 45443.13, 55796.50, 51725.55, -187500.02, -187500.02, 43573.81, 43671.24, -187500.02, 0.00, 0.00, 0.00
185, 45302.87, 55429.38, 51324.63, -187500.02, -187500.02, 43871.53, 44121.16, -187500.02, 0.00, 0.00, 0.00
186, 45490.43, 55497.46, 51154.11, -187500.02, -187500.02, 43974.44, 44035.80, -187500.02, 0.00, 0.00, 0.00
187, 45667.45, 55867.25, 51565.32, -187500.02, -187500.02, 43700.14, 43588.79, -187500.02, 0.00, 0.00, 0.00
188, 45533.39, 55844.91, 51791.14, -187500.02, -187500.02, 43583.87, 43659.01, -187500.02, 0.00, 0.00, 0.00
189, 45363.85, 55480.85, 51437.53, -187500.02, -187500.02, 43856.82, 44105.94, -187500.02, 0.00, 0.00, 0.00
190, 45472.59, 55453.80, 51179.44, -187500.02, -187500.02, 43994.89, 44079.27, -187500.02, 0.00, 0.00, 0.00
191, 45665.44, 55818.81, 51532.01, -187500.02, -187500.02, 43745.45, 43628.57, -187500.02, 0.00, 0.00, 0.00
192, 45586.45, 55897.75, 51854.95, -187500.02, -187500.02, 43574.48, 43586.55, -187500.02, 0.00, 0.00, 0.00
193, 45387.32, 55550.36, 51599.09, -187500.02, -187500.02, 43788.54, 44008.97, -187500.02, 0.00, 0.00, 0.00
194, 45435.20, 55420.16, 51257.40, -187500.02, -187500.02, 43988.68, 44127.68, -187500.02, 0.00, 0.00, 0.00
195, 45655.47, 55759.80, 51505.30, -187500.02, -187500.02, 43816.10, 43739.34, -187500.02, 0.00, 0.00, 0.00
196, 45612.84, 55933.03, 51913.71, -187500.02, -187500.02, 43566.32, 43537.80, -187500.02, 0.00, 0.00, 0.00
197, 45403.72, 55623.05, 51749.05, -187500.02, -187500.02, 43732.50, 43954.82, -187500.02, 0.00, 0.00, 0.00
198, 45411.25, 55406.80, 51344.77, -187500.02, -187500.02, 43999.27, 44189.80, -187500.02, 0.00, 0.00, 0.00
199, 45630.53, 55697.62, 51505.10, -187500.02, -187500.02, 43865.77, 43819.77, -187500.02, 0.00, 0.00, 0.00
200, 45659.05, 55947.73, 51940.51, -187500.02, -187500.02, 43596.16, 43552.57, -187500.02, 0.00, 0.00, 0.00
201, 45442.91, 55693.71, 51886.80, -187500.02, -187500.02, 43675.00, 43850.07, -187500.02, 0.00, 0.00, 0.00
202, 45376.27, 55399.87, 51460.62, -187500.02, -187500.02, 43952.02, 44169.86, -187500.02, 0.00, 0.00, 0.00
203, 45595.64, 55625.76, 51493.70, -187500.02, -187500.02, 43908.64, 43893.44, -187500.02, 0.00, 0.00, 0.00
204, 45687.84, 55944.89, 51954.53, -187500.02, -187500.02, 43626.16, 43544.86, -187500.02, 0.00, 0.00, 0.00
205, 45519.97, 55781.04, 52005.22, -187500.02, -187500.02, 43668.94, 43819.32, -187500.02, 0.00, 0.00, 0.00
206, 45417.71, 55442.36, 51578.84, -187500.02, -187500.02, 43964.63, 44208.42, -187500.02, 0.00, 0.00, 0.00
207, 45605.78, 55577.86, 51489.88, -187500.02, -187500.02, 43983.85, 44010.45, -187500.02, 0.00, 0.00, 0.00
208, 45736.45, 55932.13, 51925.09, -187500.02, -187500.02, 43692.65, 43592.58, -187500.02, 0.00, 0.00, 0.00
209, 45572.90, 55844.63, 52074.69, -187500.02, -187500.02, 43637.84, 43733.24, -187500.02, 0.00, 0.00, 0.00
210, 45410.16, 55479.13, 51702.31, -187500.02, -187500.02, 43897.80, 44141.32, -187500.02, 0.00, 0.00, 0.00
211, 45563.16, 55523.16, 51517.48, -187500.02, -187500.02, 43998.54, 44073.30, -187500.02, 0.00, 0.00, 0.00
212, 45747.65, 55897.35, 51917.67, -187500.02, -187500.02, 43743.23, 43651.08, -187500.02, 0.00, 0.00, 0.00
213, 45643.18, 55909.40, 52165.89, -187500.02, -187500.02, 43630.25, 43707.92, -187500.02, 0.00, 0.00, 0.00
214, 45462.82, 55552.31, 51852.52, -187500.02, -187500.02, 43871.31, 44119.97, -187500.02, 0.00, 0.00, 0.00
215, 45555.78, 55490.82, 51559.41, -187500.02, -187500.02, 44030.61, 44149.23, -187500.02, 0.00, 0.00, 0.00
216, 45755.25, 55852.52, 51887.63, -187500.02, -187500.02, 43800.41, 43708.28, -187500.02, 0.00, 0.00, 0.00
217, 45684.75, 55957.50, 52226.61, -187500.02, -187500.02, 43615.02, 43634.31, -187500.02, 0.00, 0.00, 0.00
218, 45472.16, 55609.26, 51992.48, -187500.02, -187500.02, 43803.85, 44026.99, -187500.02, 0.00, 0.00, 0.00
219, 45513.31, 55444.57, 51611.65, -187500.02, -187500.02, 44037.09, 44199.25, -187500.02, 0.00, 0.00, 0.00
220, 45735.82, 55772.56, 51827.48, -187500.02, -187500.02, 43874.42, 43799.38, -187500.02, 0.00, 0.00, 0.00
221, 45714.25, 55969.57, 52235.64, -187500.02, -187500.02, 43614.53, 43579.78, -187500.02, 0.00, 0.00, 0.00
222, 45491.03, 55678.77, 52112.78, -187500.02, -187500.02, 43742.18, 43931.77, -187500.02, 0.00, 0.00, 0.00
223, 45463.98, 55437.49, 51702.98, -187500.02, -187500.02, 44009.06, 44189.80, -187500.02, 0.00, 0.00, 0.00
224, 45677.55, 55710.31, 51828.64, -187500.02, -187500.02, 43899.45, 43832.39, -187500.02, 0.00, 0.00, 0.00
225, 45728.49, 55982.87, 52269.08, -187500.02, -187500.02, 43636.95, 43565.45, -187500.02, 0.00, 0.00, 0.00
226, 45547.63, 55757.70, 52221.47, -187500.02, -187500.02, 43741.00, 43908.32, -187500.02, 0.00, 0.00, 0.00
227, 45483.43, 55461.40, 51798.36, -187500.02, -187500.02, 44030.83, 44234.84, -187500.02, 0.00, 0.00, 0.00
228, 45693.74, 55669.34, 51811.86, -187500.02, -187500.02, 43993.73, 43970.04, -187500.02, 0.00, 0.00, 0.00
229, 45779.03, 55994.43, 52268.52, -187500.02, -187500.02, 43691.60, 43579.84, -187500.02, 0.00, 0.00, 0.00
230, 45596.17, 55839.57, 52338.02, -187500.02, -187500.02, 43705.21, 43823.50, -187500.02, 0.00, 0.00, 0.00
231, 45480.41, 55493.81, 51925.92, -187500.02, -187500.02, 44002.94, 44218.54, -187500.02, 0.00, 0.00, 0.00
232, 45649.08, 55608.68, 51838.63, -187500.02, -187500.02, 44015.55, 44022.09, -187500.02, 0.00, 0.00, 0.00
233, 45798.01, 55970.60, 52265.15, -187500.02, -187500.02, 43744.04, 43626.22, -187500.02, 0.00, 0.00, 0.00
234, 45635.82, 55909.63, 52465.80, -187500.02, -187500.02, 43656.15, 43716.41, -187500.02, 0.00, 0.00, 0.00
235, 45469.62, 55537.45, 52098.14, -187500.02, -187500.02, 43924.77, 44156.23, -187500.02, 0.00, 0.00, 0.00
236, 45606.74, 55545.02, 51873.34, -187500.02, -187500.02, 44043.75, 44110.83, -187500.02, 0.00, 0.00, 0.00
237, 45807.04, 55914.45, 52231.49, -187500.02, -187500.02, 43814.29, 43705.93, -187500.02, 0.00, 0.00, 0.00
238, 45685.49, 55947.55, 52515.04, -187500.02, -187500.02, 43649.58, 43666.55, -187500.02, 0.00, 0.00, 0.00
239, 45484.03, 55585.48, 52224.63, -187500.02, -187500.02, 43870.10, 44086.04, -187500.02, 0.00, 0.00, 0.00
240, 45577.30, 55492.81, 51891.45, -187500.02, -187500.02, 44066.48, 44185.95, -187500.02, 0.00, 0.00, 0.00
241, 45786.07, 55849.77, 52187.50, -187500.02, -187500.02, 43848.04, 43735.28, -187500.02, 0.00, 0.00, 0.00
242, 45721.41, 55973.32, 52538.18, -187500.02, -187500.02, 43637.02, 43614.02, -187500.02, 0.00, 0.00, 0.00
243, 45517.80, 55643.82, 52328.89, -187500.02, -187500.02, 43816.05, 44008.30, -187500.02, 0.00, 0.00, 0.00
244, 45547.89, 55471.62, 51957.90, -187500.02, -187500.02, 44042.95, 44183.16, -187500.02, 0.00, 0.00, 0.00
245, 45779.57, 55791.11, 52148.94, -187500.02, -187500.02, 43901.24, 43824.15, -187500.02, 0.00, 0.00, 0.00
246, 45779.39, 56004.15, 52551.63, -187500.02, -187500.02, 43656.55, 43596.36, -187500.02, 0.00, 0.00, 0.00
247, 45570.49, 55720.28, 52432.83, -187500.02, -187500.02, 43779.64, 43948.51, -187500.02, 0.00, 0.00, 0.00
248, 45530.17, 55460.02, 52016.20, -187500.02, -187500.02, 44040.27, 44213.29, -187500.02, 0.00, 0.00, 0.00
249, 45734.73, 55717.38, 52121.61, -187500.02, -187500.02, 43939.01, 43865.16, -187500.02, 0.00, 0.00, 0.00
250, 45784.60, 56003.39, 52580.76, -187500.02, -187500.02, 43651.86, 43546.89, -187500.02, 0.00, 0.00, 0.00
251, 45593.04, 55790.09, 52575.75, -187500.02, -187500.02, 43713.75, 43849.29, -187500.02, 0.00, 0.00, 0.00
252, 45515.26, 55463.75, 52136.00, -187500.02, -187500.02, 44012.80, 44226.23, -187500.02, 0.00, 0.00, 0.00
253, 45709.72, 55643.68, 52129.70, -187500.02, -187500.02, 43977.01, 43946.41, -187500.02, 0.00, 0.00, 0.00
254, 45807.48, 55979.34, 52591.06, -187500.02, -187500.02, 43675.20, 43549.00, -187500.02, 0.00, 0.00, 0.00
255, 45616.71, 55843.75, 52710.24, -187500.02, -187500.02, 43643.48, 43726.56, -187500.02, 0.00, 0.00, 0.00
0, 45495.75, 55486.86, 52303.73, -187500.02, -187500.02, 43947.68, 44168.68, -187500.02, 0.00, 0.00, 0.00
1, 45694.47, 55584.67, 52158.80, -187500.02, -187500.02, 44040.67, 44060.92, -187500.02, 0.00, 0.00, 0.00
2, 45842.44, 55945.57, 52574.83, -187500.02, -187500.02, 43750.68, 43611.67, -187500.02, 0.00, 0.00, 0.00
3, 45702.92, 55895.18, 52750.92, -187500.02, -187500.02, 43666.50, 43726.67, -187500.02, 0.00, 0.00, 0.00
4, 45530.46, 55524.14, 52385.91, -187500.02, -187500.02, 43917.80, 44133.81, -187500.02, 0.00, 0.00, 0.00
5, 45629.16, 55514.42, 52167.14, -187500.02, -187500.02, 44010.67, 44057.95, -187500.02, 0.00, 0.00, 0.00
6, 45811.95, 55883.25, 52533.79, -187500.02, -187500.02, 43767.73, 43643.57, -187500.02, 0.00, 0.00, 0.00
7, 45725.36, 55948.14, 52832.46, -187500.02, -187500.02, 43626.25, 43641.42, -187500.02, 0.00, 0.00, 0.00
8, 45536.16, 55599.27, 52553.91, -187500.02, -187500.02, 43857.21, 44064.16, -187500.02, 0.00, 0.00, 0.00
9, 45584.64, 55485.28, 52234.73, -187500.02, -187500.02, 44024.00, 44118.16, -187500.02, 0.00, 0.00, 0.00
10, 45791.26, 55825.87, 52501.99, -187500.02, -187500.02, 43823.07, 43719.30, -187500.02, 0.00, 0.00, 0.00
11, 45757.73, 55981.24, 52866.86, -187500.02, -187500.02, 43620.68, 43591.33, -187500.02, 0.00, 0.00, 0.00
12, 45558.73, 55668.11, 52685.94, -187500.02, -187500.02, 43794.62, 43981.91, -187500.02, 0.00, 0.00, 0.00
13, 45582.87, 55469.94, 52279.23, -187500.02, -187500.02, 44062.35, 44220.38, -187500.02, 0.00, 0.00, 0.00
14, 45809.81, 55778.80, 52434.04, -187500.02, -187500.02, 43937.56, 43857.14, -187500.02, 0.00, 0.00, 0.00
15, 45807.39, 56022.10, 52869.88, -187500.02, -187500.02, 43650.72, 43563.48, -187500.02, 0.00, 0.00, 0.00
16, 45593.18, 55756.16, 52789.34, -187500.02, -187500.02, 43753.58, 43910.31, -187500.02, 0.00, 0.00, 0.00
17, 45552.32, 55476.80, 52363.96, -187500.02, -187500.02, 44033.85, 44206.30, -187500.02, 0.00, 0.00, 0.00
18, 45758.67, 55705.86, 52418.32, -187500.02, -187500.02, 43956.11, 43896.99, -187500.02, 0.00, 0.00, 0.00
19, 45833.84, 56006.63, 52860.91, -187500.02, -187500.02, 43678.28, 43565.29, -187500.02, 0.00, 0.00, 0.00
20, 45636.00, 55816.62, 52897.93, -187500.02, -187500.02, 43702.60, 43807.99, -187500.02, 0.00, 0.00, 0.00
21, 45533.21, 55479.44, 52469.00, -187500.02, -187500.02, 43992.16, 44205.27, -187500.02, 0.00, 0.00, 0.00
22, 45747.34, 55639.95, 52388.80, -187500.02, -187500.02, 44032.73, 44025.74, -187500.02, 0.00, 0.00, 0.00
23, 45877.04, 55999.48, 52826.63, -187500.02, -187500.02, 43748.98, 43618.87, -187500.02, 0.00, 0.00, 0.00
24, 45707.73, 55896.86, 52958.01, -187500.02, -187500.02, 43703.71, 43771.11, -187500.02, 0.00, 0.00, 0.00
25, 45552.18, 55531.54, 52578.32, -187500.02, -187500.02, 43959.84, 44159.07, -187500.02, 0.00, 0.00, 0.00
26, 45704.20, 55584.45, 52404.98, -187500.02, -187500.02, 44042.61, 44059.06, -187500.02, 0.00, 0.00, 0.00
27, 45874.18, 55950.75, 52789.19, -187500.02, -187500.02, 43793.95, 43658.59, -187500.02, 0.00, 0.00, 0.00
28, 45750.64, 55943.64, 53012.37, -187500.02, -187500.02, 43689.68, 43712.34, -187500.02, 0.00, 0.00, 0.00
29, 45566.96, 55580.29, 52688.74, -187500.02, -187500.02, 43922.50, 44120.55, -187500.02, 0.00, 0.00, 0.00
30, 45677.22, 55542.43, 52412.04, -187500.02, -187500.02, 44078.91, 44145.95, -187500.02, 0.00, 0.00, 0.00
31, 45853.73, 55904.28, 52753.20, -187500.02, -187500.02, 43825.09, 43682.93, -187500.02, 0.00, 0.00, 0.00
32, 45754.04, 55987.43, 53086.57, -187500.02, -187500.02, 43627.65, 43612.75, -187500.02, 0.00, 0.00, 0.00
33, 45556.83, 55634.96, 52839.03, -187500.02, -187500.02, 43834.54, 44034.61, -187500.02, 0.00, 0.00, 0.00
34, 45623.93, 55486.17, 52459.83, -187500.02, -187500.02, 44065.64, 44198.52, -187500.02, 0.00, 0.00, 0.00
35, 45850.67, 55825.02, 52676.11, -187500.02, -187500.02, 43909.29, 43816.01, -187500.02, 0.00, 0.00, 0.00
36, 45821.16, 56010.65, 53061.96, -187500.02, -187500.02, 43682.37, 43621.75, -187500.02, 0.00, 0.00, 0.00
37, 45608.46, 55714.94, 52925.02, -187500.02, -187500.02, 43823.01, 43985.95, -187500.02, 0.00, 0.00, 0.00
38, 45609.43, 55494.44, 52520.52, -187500.02, -187500.02, 44084.19, 44233.05, -187500.02, 0.00, 0.00, 0.00
39, 45817.36, 55778.69, 52656.98, -187500.02, -187500.02, 43956.18, 43867.09, -187500.02, 0.00, 0.00, 0.00
40, 45835.29, 56033.59, 53085.59, -187500.02, -187500.02, 43683.76, 43577.16, -187500.02, 0.00, 0.00, 0.00
41, 45612.62, 55785.93, 53048.22, -187500.02, -187500.02, 43738.29, 43859.02, -187500.02, 0.00, 0.00, 0.00
42, 45545.68, 55481.57, 52622.29, -187500.02, -187500.02, 44008.91, 44186.00, -187500.02, 0.00, 0.00, 0.00
43, 45758.45, 55699.61, 52646.25, -187500.02, -187500.02, 43971.45, 43921.29, -187500.02, 0.00, 0.00, 0.00
44, 45842.00, 56021.61, 53092.52, -187500.02, -187500.02, 43699.36, 43579.60, -187500.02, 0.00, 0.00, 0.00
45, 45659.49, 55851.33, 53136.91, -187500.02, -187500.02, 43729.33, 43823.41, -187500.02, 0.00, 0.00, 0.00
46, 45549.81, 55501.37, 52716.63, -187500.02, -187500.02, 44002.67, 44193.73, -187500.02, 0.00, 0.00, 0.00
47, 45739.80, 55634.81, 52631.00, -187500.02, -187500.02, 44028.93, 44003.23, -187500.02, 0.00, 0.00, 0.00
48, 45857.71, 55992.53, 53078.73, -187500.02, -187500.02, 43732.84, 43580.69, -187500.02, 0.00, 0.00, 0.00
49, 45697.13, 55907.05, 53232.15, -187500.02, -187500.02, 43676.38, 43740.66, -187500.02, 0.00, 0.00, 0.00
50, 45548.05, 55534.20, 52846.47, -187500.02, -187500.02, 43945.85, 44155.11, -187500.02, 0.00, 0.00, 0.00
51, 45694.43, 55560.58, 52635.65, -187500.02, -187500.02, 44040.60, 44076.27, -187500.02, 0.00, 0.00, 0.00
52, 45865.33, 55926.32, 53001.55, -187500.02, -187500.02, 43780.81, 43649.89, -187500.02, 0.00, 0.00, 0.00
53, 45749.62, 55942.01, 53251.42, -187500.02, -187500.02, 43651.64, 43669.72, -187500.02, 0.00, 0.00, 0.00
54, 45568.07, 55584.03, 52947.64, -187500.02, -187500.02, 43877.84, 44086.09, -187500.02, 0.00, 0.00, 0.00
55, 45660.25, 55520.12, 52663.34, -187500.02, -187500.02, 44037.47, 44119.46, -187500.02, 0.00, 0.00, 0.00
56, 45866.63, 55880.05, 52961.05, -187500.02, -187500.02, 43837.89, 43727.18, -187500.02, 0.00, 0.00, 0.00
57, 45799.13, 55992.93, 53289.53, -187500.02, -187500.02, 43657.29, 43634.70, -187500.02, 0.00, 0.00, 0.00
58, 45595.79, 55656.02, 53047.32, -187500.02, -187500.02, 43848.67, 44042.86, -187500.02, 0.00, 0.00, 0.00
59, 45627.08, 55495.45, 52675.44, -187500.02, -187500.02, 44057.63, 44181.60, -187500.02, 0.00, 0.00, 0.00
60, 45827.22, 55822.99, 52908.41, -187500.02, -187500.02, 43884.00, 43764.36, -187500.02, 0.00, 0.00, 0.00
61, 45796.69, 56013.22, 53313.82, -187500.02, -187500.02, 43642.23, 43561.20, -187500.02, 0.00, 0.00, 0.00
62, 45602.54, 55714.65, 53167.45, -187500.02, -187500.02, 43794.06, 43943.28, -187500.02, 0.00, 0.00, 0.00
63, 45577.91, 55467.26, 52767.30, -187500.02, -187500.02, 44035.02, 44158.93, -187500.02, 0.00, 0.00, 0.00
64, 45796.35, 55734.03, 52877.99, -187500.02, -187500.02, 43934.27, 43849.50, -187500.02, 0.00, 0.00, 0.00
65, 45848.52, 56009.56, 53311.84, -187500.02, -187500.02, 43673.32, 43564.20, -187500.02, 0.00, 0.00, 0.00
66, 45636.20, 55777.19, 53293.33, -187500.02, -187500.02, 43725.44, 43836.73, -187500.02, 0.00, 0.00, 0.00
67, 45558.08, 55460.71, 52864.20, -187500.02, -187500.02, 44004.62, 44186.02, -187500.02, 0.00, 0.00, 0.00
68, 45765.80, 55662.64, 52867.91, -187500.02, -187500.02, 43980.83, 43924.06, -187500.02, 0.00, 0.00, 0.00
69, 45856.88, 55988.52, 53305.76, -187500.02, -187500.02, 43697.12, 43574.55, -187500.02, 0.00, 0.00, 0.00
70, 45678.45, 55840.15, 53382.20, -187500.02, -187500.02, 43695.82, 43774.91, -187500.02, 0.00, 0.00, 0.00
71, 45551.60, 55487.62, 52976.05, -187500.02, -187500.02, 43967.87, 44163.31, -187500.02, 0.00, 0.00, 0.00
72, 45744.83, 55595.87, 52830.09, -187500.02, -187500.02, 44047.29, 44055.78, -187500.02, 0.00, 0.00, 0.00
73, 45895.19, 55966.64, 53231.64, -187500.02, -187500.02, 43783.29, 43639.72, -187500.02, 0.00, 0.00, 0.00
74, 45723.82, 55913.96, 53430.59, -187500.02, -187500.02, 43672.98, 43688.99, -187500.02, 0.00, 0.00, 0.00
75, 45547.51, 55537.07, 53073.28, -187500.02, -187500.02, 43914.56, 44106.85, -187500.02, 0.00, 0.00, 0.00
76, 45686.07, 55541.18, 52838.49, -187500.02, -187500.02, 44040.18, 44072.25, -187500.02, 0.00, 0.00, 0.00
77, 45862.92, 55907.34, 53194.31, -187500.02, -187500.02, 43789.64, 43648.46, -187500.02, 0.00, 0.00, 0.00
78, 45750.58, 55947.29, 53473.73, -187500.02, -187500.02, 43636.37, 43623.72, -187500.02, 0.00, 0.00, 0.00
79, 45560.74, 55588.03, 53181.64, -187500.02, -187500.02, 43861.77, 44055.42, -187500.02, 0.00, 0.00, 0.00
80, 45663.50, 55512.16, 52865.81, -187500.02, -187500.02, 44066.42, 44148.34, -187500.02, 0.00, 0.00, 0.00
81, 45878.94, 55874.62, 53158.06, -187500.02, -187500.02, 43871.20, 43737.73, -187500.02, 0.00, 0.00, 0.00
82, 45827.00, 56008.62, 53501.38, -187500.02, -187500.02, 43683.55, 43640.64, -187500.02, 0.00, 0.00, 0.00
83, 45617.88, 55677.84, 53295.74, -187500.02, -187500.02, 43849.65, 44006.85, -187500.02, 0.00, 0.00, 0.00
84, 45646.04, 55485.66, 52896.70, -187500.02, -187500.02, 44084.39, 44205.69, -187500.02, 0.00, 0.00, 0.00
85, 45865.96, 55799.30, 53082.44, -187500.02, -187500.02, 43933.22, 43809.95, -187500.02, 0.00, 0.00, 0.00
86, 45852.95, 56016.75, 53498.52, -187500.02, -187500.02, 43669.43, 43567.30, -187500.02, 0.00, 0.00, 0.00
87, 45634.04, 55737.07, 53398.02, -187500.02, -187500.02, 43770.10, 43888.39, -187500.02, 0.00, 0.00, 0.00
88, 45598.14, 55469.61, 52982.26, -187500.02, -187500.02, 44028.53, 44167.07, -187500.02, 0.00, 0.00, 0.00
89, 45819.55, 55722.54, 53056.98, -187500.02, -187500.02, 43962.95, 43879.40, -187500.02, 0.00, 0.00, 0.00
90, 45873.69, 56016.13, 53503.04, -187500.02, -187500.02, 43686.68, 43538.09, -187500.02, 0.00, 0.00, 0.00
91, 45666.47, 55801.91, 53504.91, -187500.02, -187500.02, 43712.75, 43807.94, -187500.02, 0.00, 0.00, 0.00
92, 45596.37, 55476.87, 53062.61, -187500.02, -187500.02, 44006.29, 44178.13, -187500.02, 0.00, 0.00, 0.00
93, 45796.31, 55657.43, 53033.22, -187500.02, -187500.02, 43999.16, 43943.10, -187500.02, 0.00, 0.00, 0.00
94, 45902.57, 55996.80, 53469.13, -187500.02, -187500.02, 43722.89, 43567.01, -187500.02, 0.00, 0.00, 0.00
95, 45723.33, 55869.75, 53577.71, -187500.02, -187500.02, 43684.20, 43732.21, -187500.02, 0.00, 0.00, 0.00
96, 45591.30, 55507.49, 53174.42, -187500.02, -187500.02, 43951.93, 44138.17, -187500.02, 0.00, 0.00, 0.00
97, 45759.12, 55585.21, 53018.96, -187500.02, -187500.02, 44019.86, 44017.27, -187500.02, 0.00, 0.00, 0.00
98, 45909.88, 55951.36, 53425.23, -187500.02, -187500.02, 43752.98, 43593.75, -187500.02, 0.00, 0.00, 0.00
99, 45771.88, 55917.43, 53626.04, -187500.02, -187500.02, 43665.59, 43689.81, -187500.02, 0.00, 0.00, 0.00
100, 45616.63, 55550.07, 53263.67, -187500.02, -187500.02, 43932.20, 44115.39, -187500.02, 0.00, 0.00, 0.00
101, 45742.82, 55536.39, 53008.50, -187500.02, -187500.02, 44058.55, 44095.83, -187500.02, 0.00, 0.00, 0.00
102, 45929.75, 55907.28, 53347.93, -187500.02, -187500.02, 43824.15, 43671.69, -187500.02, 0.00, 0.00, 0.00
103, 45816.63, 55972.48, 53661.51, -187500.02, -187500.02, 43635.99, 43599.60, -187500.02, 0.00, 0.00, 0.00
104, 45618.05, 55617.02, 53399.81, -187500.02, -187500.02, 43840.42, 44017.42, -187500.02, 0.00, 0.00, 0.00
105, 45696.48, 55502.60, 53060.47, -187500.02, -187500.02, 44050.35, 44138.73, -187500.02, 0.00, 0.00, 0.00
106, 45915.71, 55847.91, 53309.96, -187500.02, -187500.02, 43871.33, 43749.94, -187500.02, 0.00, 0.00, 0.00
107, 45878.38, 56011.41, 53676.06, -187500.02, -187500.02, 43661.52, 43608.65, -187500.02, 0.00, 0.00, 0.00
108, 45667.14, 55696.70, 53499.97, -187500.02, -187500.02, 43812.59, 43975.20, -187500.02, 0.00, 0.00, 0.00
109, 45663.00, 55480.16, 53103.36, -187500.02, -187500.02, 44040.71, 44169.10, -187500.02, 0.00, 0.00, 0.00
110, 45874.36, 55773.95, 53258.33, -187500.02, -187500.02, 43911.59, 43811.52, -187500.02, 0.00, 0.00, 0.00
111, 45879.84, 56007.43, 53674.56, -187500.02, -187500.02, 43647.17, 43556.02, -187500.02, 0.00, 0.00, 0.00
112, 45682.09, 55747.46, 53589.67, -187500.02, -187500.02, 43752.31, 43888.74, -187500.02, 0.00, 0.00, 0.00
113, 45627.20, 55466.03, 53174.78, -187500.02, -187500.02, 44001.82, 44164.86, -187500.02, 0.00, 0.00, 0.00
114, 45845.08, 55705.15, 53232.22, -187500.02, -187500.02, 43946.72, 43883.31, -187500.02, 0.00, 0.00, 0.00
115, 45926.78, 56012.78, 53665.80, -187500.02, -187500.02, 43690.91, 43594.24, -187500.02, 0.00, 0.00, 0.00
116, 45744.88, 55827.59, 53679.46, -187500.02, -187500.02, 43730.92, 43847.46, -187500.02, 0.00, 0.00, 0.00
117, 45641.79, 55497.05, 53262.60, -187500.02, -187500.02, 43999.14, 44198.02, -187500.02, 0.00, 0.00, 0.00
118, 45829.59, 55649.07, 53191.25, -187500.02, -187500.02, 44002.09, 43999.43, -187500.02, 0.00, 0.00, 0.00
119, 45948.28, 55998.58, 53622.19, -187500.02, -187500.02, 43722.56, 43603.76, -187500.02, 0.00, 0.00, 0.00
120, 45766.49, 55891.36, 53762.67, -187500.02, -187500.02, 43661.88, 43739.03, -187500.02, 0.00, 0.00, 0.00
121, 45628.45, 55526.18, 53366.49, -187500.02, -187500.02, 43941.63, 44161.73, -187500.02, 0.00, 0.00, 0.00
122, 45782.23, 55583.45, 53193.93, -187500.02, -187500.02, 44015.52, 44040.47, -187500.02, 0.00, 0.00, 0.00
123, 45927.31, 55950.73, 53604.87, -187500.02, -187500.02, 43727.68, 43598.08, -187500.02, 0.00, 0.00, 0.00
124, 45800.46, 55939.42, 53831.45, -187500.02, -187500.02, 43629.02, 43679.66, -187500.02, 0.00, 0.00, 0.00
125, 45632.49, 55573.45, 53498.16, -187500.02, -187500.02, 43884.86, 44105.40, -187500.02, 0.00, 0.00, 0.00
126, 45750.29, 55536.73, 53220.46, -187500.02, -187500.02, 44049.27, 44132.89, -187500.02, 0.00, 0.00, 0.00
127, 45935.80, 55903.23, 53551.78, -187500.02, -187500.02, 43812.68, 43685.32, -187500.02, 0.00, 0.00, 0.00
128, 45825.95, 55983.07, 53883.08, -187500.02, -187500.02, 43602.62, 43594.48, -187500.02, 0.00, 0.00, 0.00
129, 45635.62, 55632.46, 53625.54, -187500.02, -187500.02, 43815.99, 44025.13, -187500.02, 0.00, 0.00, 0.00
130, 45689.56, 55493.25, 53279.72, -187500.02, -187500.02, 44017.40, 44135.71, -187500.02, 0.00, 0.00, 0.00
131, 45897.85, 55828.42, 53521.79, -187500.02, -187500.02, 43839.93, 43746.36, -187500.02, 0.00, 0.00, 0.00
132, 45876.48, 56007.97, 53905.77, -187500.02, -187500.02, 43624.82, 43593.30, -187500.02, 0.00, 0.00, 0.00
133, 45678.05, 55705.42, 53750.00, -187500.02, -187500.02, 43774.79, 43955.53, -187500.02, 0.00, 0.00, 0.00
134, 45676.57, 55481.48, 53347.98, -187500.02, -187500.02, 44020.06, 44183.50, -187500.02, 0.00, 0.00, 0.00
135, 45897.03, 55772.79, 53493.29, -187500.02, -187500.02, 43898.91, 43834.45, -187500.02, 0.00, 0.00, 0.00
136, 45919.63, 56034.43, 53923.89, -187500.02, -187500.02, 43632.82, 43562.59, -187500.02, 0.00, 0.00, 0.00
137, 45683.41, 55778.08, 53880.35, -187500.02, -187500.02, 43682.50, 43828.37, -187500.02, 0.00, 0.00, 0.00
138, 45618.43, 55466.07, 53446.80, -187500.02, -187500.02, 43955.40, 44162.38, -187500.02, 0.00, 0.00, 0.00
139, 45847.54, 55679.42, 53451.20, -187500.02, -187500.02, 43933.05, 43919.93, -187500.02, 0.00, 0.00, 0.00
140, 45934.15, 55998.96, 53887.37, -187500.02, -187500.02, 43649.91, 43559.28, -187500.02, 0.00, 0.00, 0.00
141, 45730.46, 55827.75, 53953.02, -187500.02, -187500.02, 43642.09, 43759.24, -187500.02, 0.00, 0.00, 0.00
142, 45613.76, 55481.32, 53549.79, -187500.02, -187500.02, 43915.81, 44129.92, -187500.02, 0.00, 0.00, 0.00
143, 45815.20, 55618.92, 53468.30, -187500.02, -187500.02, 43964.65, 43979.40, -187500.02, 0.00, 0.00, 0.00
144, 45957.66, 55987.09, 53908.67, -187500.02, -187500.02, 43706.82, 43591.62, -187500.02, 0.00, 0.00, 0.00
145, 45794.54, 55907.99, 54071.06, -187500.02, -187500.02, 43645.60, 43726.56, -187500.02, 0.00, 0.00, 0.00
146, 45657.04, 55542.65, 53682.90, -187500.02, -187500.02, 43924.21, 44166.71, -187500.02, 0.00, 0.00, 0.00
147, 45808.87, 55574.79, 53467.92, -187500.02, -187500.02, 44033.09, 44100.19, -187500.02, 0.00, 0.00, 0.00
148, 45976.62, 55943.15, 53840.12, -187500.02, -187500.02, 43770.82, 43656.89, -187500.02, 0.00, 0.00, 0.00
149, 45842.33, 55958.39, 54116.48, -187500.02, -187500.02, 43608.61, 43638.16, -187500.02, 0.00, 0.00, 0.00
150, 45683.57, 55598.71, 53798.21, -187500.02, -187500.02, 43875.31, 44115.32, -187500.02, 0.00, 0.00, 0.00
151, 45795.71, 55544.06, 53505.74, -187500.02, -187500.02, 44055.20, 44154.55, -187500.02, 0.00, 0.00, 0.00
152, 45985.54, 55903.34, 53821.97, -187500.02, -187500.02, 43825.18, 43719.92, -187500.02, 0.00, 0.00, 0.00
153, 45907.87, 56008.91, 54155.30, -187500.02, -187500.02, 43635.16, 43637.84, -187500.02, 0.00, 0.00, 0.00
154, 45713.03, 55678.86, 53930.49, -187500.02, -187500.02, 43832.33, 44047.89, -187500.02, 0.00, 0.00, 0.00
155, 45759.90, 55528.37, 53563.56, -187500.02, -187500.02, 44070.13, 44221.83, -187500.02, 0.00, 0.00, 0.00
156, 45958.67, 55852.54, 53786.99, -187500.02, -187500.02, 43892.16, 43803.81, -187500.02, 0.00, 0.00, 0.00
157, 45922.39, 56047.11, 54193.88, -187500.02, -187500.02, 43634.96, 43583.17, -187500.02, 0.00, 0.00, 0.00
158, 45704.27, 55757.54, 54086.30, -187500.02, -187500.02, 43750.95, 43927.50, -187500.02, 0.00, 0.00, 0.00
159, 45695.86, 55519.03, 53678.25, -187500.02, -187500.02, 44027.75, 44224.00, -187500.02, 0.00, 0.00, 0.00
160, 45923.02, 55794.13, 53782.18, -187500.02, -187500.02, 43946.90, 43904.59, -187500.02, 0.00, 0.00, 0.00
161, 45941.30, 56061.50, 54223.36, -187500.02, -187500.02, 43651.41, 43576.45, -187500.02, 0.00, 0.00, 0.00
162, 45737.57, 55829.83, 54189.19, -187500.02, -187500.02, 43722.49, 43884.43, -187500.02, 0.00, 0.00, 0.00
163, 45657.44, 55521.30, 53777.87, -187500.02, -187500.02, 43989.48, 44199.16, -187500.02, 0.00, 0.00, 0.00
164, 45854.31, 55710.65, 53770.65, -187500.02, -187500.02, 43966.28, 43959.02, -187500.02, 0.00, 0.00, 0.00
165, 45936.50, 56033.72, 54210.04, -187500.02, -187500.02, 43678.19, 43579.26, -187500.02, 0.00, 0.00, 0.00
166, 45744.77, 55890.78, 54314.31, -187500.02, -187500.02, 43658.54, 43781.57, -187500.02, 0.00, 0.00, 0.00
167, 45662.67, 55550.74, 53897.27, -187500.02, -187500.02, 43993.80, 44251.78, -187500.02, 0.00, 0.00, 0.00
168, 45839.00, 55667.22, 53789.98, -187500.02, -187500.02, 44042.41, 44061.57, -187500.02, 0.00, 0.00, 0.00
169, 45951.03, 56023.73, 54216.50, -187500.02, -187500.02, 43743.99, 43627.65, -187500.02, 0.00, 0.00, 0.00
170, 45800.31, 55968.05, 54404.55, -187500.02, -187500.02, 43669.83, 43746.21, -187500.02, 0.00, 0.00, 0.00
171, 45655.36, 55610.89, 54062.77, -187500.02, -187500.02, 43934.54, 44171.25, -187500.02, 0.00, 0.00, 0.00
172, 45805.63, 55621.55, 53833.50, -187500.02, -187500.02, 44067.20, 44154.84, -187500.02, 0.00, 0.00, 0.00
173, 45993.92, 55986.02, 54170.08, -187500.02, -187500.02, 43839.44, 43751.57, -187500.02, 0.00, 0.00, 0.00
174, 45875.79, 56022.81, 54451.22, -187500.02, -187500.02, 43669.81, 43697.61, -187500.02, 0.00, 0.00, 0.00
175, 45691.61, 55671.46, 54179.35, -187500.02, -187500.02, 43882.57, 44110.47, -187500.02, 0.00, 0.00, 0.00
176, 45775.34, 55583.63, 53874.50, -187500.02, -187500.02, 44069.68, 44192.73, -187500.02, 0.00, 0.00, 0.00
177, 45973.25, 55935.20, 54162.86, -187500.02, -187500.02, 43871.73, 43782.80, -187500.02, 0.00, 0.00, 0.00
178, 45908.49, 56062.53, 54510.56, -187500.02, -187500.02, 43664.64, 43659.23, -187500.02, 0.00, 0.00, 0.00
179, 45700.87, 55741.63, 54336.84, -187500.02, -187500.02, 43820.01, 44024.42, -187500.02, 0.00, 0.00, 0.00
180, 45720.47, 55558.75, 53980.18, -187500.02, -187500.02, 44051.53, 44213.05, -187500.02, 0.00, 0.00, 0.00
181, 45922.28, 55855.13, 54163.64, -187500.02, -187500.02, 43910.02, 43843.50, -187500.02, 0.00, 0.00, 0.00
182, 45913.59, 56064.12, 54572.56, -187500.02, -187500.02, 43652.55, 43606.89, -187500.02, 0.00, 0.00, 0.00
183, 45732.05, 55801.42, 54488.25, -187500.02, -187500.02, 43781.50, 43964.56, -187500.02, 0.00, 0.00, 0.00
184, 45731.24, 55561.63, 54097.57, -187500.02, -187500.02, 44074.02, 44267.61, -187500.02, 0.00, 0.00, 0.00
185, 45947.68, 55804.70, 54161.49, -187500.02, -187500.02, 44004.95, 43972.21, -187500.02, 0.00, 0.00, 0.00
186, 45994.93, 56087.66, 54586.07, -187500.02, -187500.02, 43725.51, 43647.23, -187500.02, 0.00, 0.00, 0.00
187, 45799.53, 55898.34, 54608.68, -187500.02, -187500.02, 43765.36, 43906.22, -187500.02, 0.00, 0.00, 0.00
188, 45717.81, 55589.68, 54214.47, -187500.02, -187500.02, 44051.51, 44270.69, -187500.02, 0.00, 0.00, 0.00
189, 45885.22, 55757.68, 54189.12, -187500.02, -187500.02, 44040.33, 44033.54, -187500.02, 0.00, 0.00, 0.00
190, 45945.64, 56080.19, 54626.90, -187500.02, -187500.02, 43742.12, 43634.18, -187500.02, 0.00, 0.00, 0.00
191, 45775.07, 55968.79, 54759.61, -187500.02, -187500.02, 43727.86, 43839.05, -187500.02, 0.00, 0.00, 0.00
192, 45684.08, 55635.25, 54379.47, -187500.02, -187500.02, 44048.92, 44291.59, -187500.02, 0.00, 0.00, 0.00
193, 45841.50, 55711.81, 54229.31, -187500.02, -187500.02, 44121.20, 44163.52, -187500.02, 0.00, 0.00, 0.00
194, 45968.55, 56057.57, 54604.93, -187500.02, -187500.02, 43848.22, 43750.54, -187500.02, 0.00, 0.00, 0.00
195, 45812.49, 56032.65, 54836.07, -187500.02, -187500.02, 43728.57, 43772.71, -187500.02, 0.00, 0.00, 0.00
196, 45657.82, 55692.86, 54543.48, -187500.02, -187500.02, 43982.38, 44201.27, -187500.02, 0.00, 0.00, 0.00
197, 45793.22, 55674.37, 54286.53, -187500.02, -187500.02, 44155.49, 44242.21, -187500.02, 0.00, 0.00, 0.00
198, 45955.77, 56023.48, 54616.57, -187500.02, -187500.02, 43909.33, 43783.51, -187500.02, 0.00, 0.00, 0.00
199, 45843.36, 56083.45, 54923.66, -187500.02, -187500.02, 43729.87, 43721.08, -187500.02, 0.00, 0.00, 0.00
200, 45666.02, 55747.33, 54687.86, -187500.02, -187500.02, 43948.96, 44130.30, -187500.02, 0.00, 0.00, 0.00
201, 45738.21, 55636.08, 54367.13, -187500.02, -187500.02, 44171.36, 44253.57, -187500.02, 0.00, 0.00, 0.00
202, 45928.48, 55959.47, 54598.38, -187500.02, -187500.02, 43992.77, 43849.74, -187500.02, 0.00, 0.00, 0.00
203, 45856.23, 56094.59, 54952.50, -187500.02, -187500.02, 43735.07, 43636.17, -187500.02, 0.00, 0.00, 0.00
204, 45647.11, 55783.56, 54803.86, -187500.02, -187500.02, 43862.64, 43971.51, -187500.02, 0.00, 0.00, 0.00
205, 45684.71, 55586.57, 54425.98, -187500.02, -187500.02, 44136.45, 44227.21, -187500.02, 0.00, 0.00, 0.00
206, 45914.24, 55855.87, 54551.13, -187500.02, -187500.02, 44013.85, 43873.25, -187500.02, 0.00, 0.00, 0.00
207, 45923.71, 56060.99, 54944.83, -187500.02, -187500.02, 43710.24, 43555.21, -187500.02, 0.00, 0.00, 0.00
208, 45732.34, 55811.66, 54879.59, -187500.02, -187500.02, 43792.74, 43879.04, -187500.02, 0.00, 0.00, 0.00
209, 45693.69, 55545.22, 54473.52, -187500.02, -187500.02, 44073.50, 44194.34, -187500.02, 0.00, 0.00, 0.00
210, 45903.35, 55750.03, 54489.37, -187500.02, -187500.02, 44009.42, 43903.50, -187500.02, 0.00, 0.00, 0.00
211, 45966.79, 56024.38, 54903.66, -187500.02, -187500.02, 43688.25, 43513.05, -187500.02, 0.00, 0.00, 0.00
212, 45777.02, 55846.32, 54950.84, -187500.02, -187500.02, 43680.36, 43721.29, -187500.02, 0.00, 0.00, 0.00
213, 45680.17, 55536.13, 54566.60, -187500.02, -187500.02, 43968.07, 44109.40, -187500.02, 0.00, 0.00, 0.00
214, 45871.37, 55668.36, 54467.87, -187500.02, -187500.02, 44008.41, 43947.95, -187500.02, 0.00, 0.00, 0.00
215, 45969.45, 55971.25, 54856.30, -187500.02, -187500.02, 43686.80, 43500.76, -187500.02, 0.00, 0.00, 0.00
216, 45797.65, 55874.09, 55005.07, -187500.02, -187500.02, 43602.69, 43605.77, -187500.02, 0.00, 0.00, 0.00
217, 45671.47, 55553.09, 54672.99, -187500.02, -187500.02, 43880.88, 44041.63, -187500.02, 0.00, 0.00, 0.00
218, 45818.46, 55607.76, 54511.41, -187500.02, -187500.02, 43969.86, 43964.70, -187500.02, 0.00, 0.00, 0.00
219, 45972.82, 55930.59, 54852.88, -187500.02, -187500.02, 43698.24, 43549.60, -187500.02, 0.00, 0.00, 0.00
220, 45850.55, 55924.46, 55095.46, -187500.02, -187500.02, 43549.04, 43539.83, -187500.02, 0.00, 0.00, 0.00
221, 45683.70, 55605.33, 54845.01, -187500.02, -187500.02, 43787.58, 43957.03, -187500.02, 0.00, 0.00, 0.00
222, 45774.27, 55559.35, 54596.57, -187500.02, -187500.02, 43964.00, 44021.60, -187500.02, 0.00, 0.00, 0.00
223, 45942.91, 55865.30, 54873.33, -187500.02, -187500.02, 43733.69, 43608.52, -187500.02, 0.00, 0.00, 0.00
224, 45872.62, 55942.68, 55171.28, -187500.02, -187500.02, 43555.46, 43537.64, -187500.02, 0.00, 0.00, 0.00
225, 45703.62, 55652.78, 54979.07, -187500.02, -187500.02, 43774.37, 43948.89, -187500.02, 0.00, 0.00, 0.00
226, 45738.51, 55533.18, 54675.85, -187500.02, -187500.02, 43984.57, 44078.82, -187500.02, 0.00, 0.00, 0.00
227, 45901.34, 55811.10, 54876.50, -187500.02, -187500.02, 43791.89, 43693.10, -187500.02, 0.00, 0.00, 0.00
228, 45862.61, 55957.39, 55213.55, -187500.02, -187500.02, 43563.30, 43521.06, -187500.02, 0.00, 0.00, 0.00
229, 45677.00, 55698.29, 55103.39, -187500.02, -187500.02, 43710.36, 43865.25, -187500.02, 0.00, 0.00, 0.00
230, 45665.77, 55500.09, 54748.79, -187500.02, -187500.02, 43965.72, 44103.30, -187500.02, 0.00, 0.00, 0.00
231, 45817.54, 55736.33, 54872.17, -187500.02, -187500.02, 43815.07, 43716.03, -187500.02, 0.00, 0.00, 0.00
232, 45790.52, 55941.70, 55266.95, -187500.02, -187500.02, 43509.70, 43401.36, -187500.02, 0.00, 0.00, 0.00
233, 45608.64, 55725.13, 55252.68, -187500.02, -187500.02, 43588.74, 43705.84, -187500.02, 0.00, 0.00, 0.00
234, 45584.46, 55467.89, 54874.85, -187500.02, -187500.02, 43907.70, 44077.77, -187500.02, 0.00, 0.00, 0.00
235, 45778.07, 55649.16, 54857.91, -187500.02, -187500.02, 43901.71, 43858.14, -187500.02, 0.00, 0.00, 0.00
236, 45833.32, 55921.45, 55233.93, -187500.02, -187500.02, 43612.23, 43489.03, -187500.02, 0.00, 0.00, 0.00
237, 45670.40, 55786.40, 55306.55, -187500.02, -187500.02, 43615.76, 43683.38, -187500.02, 0.00, 0.00, 0.00
238, 45599.17, 55504.10, 54973.02, -187500.02, -187500.02, 43905.60, 44070.66, -187500.02, 0.00, 0.00, 0.00
239, 45770.98, 55619.25, 54881.53, -187500.02, -187500.02, 43955.55, 43933.34, -187500.02, 0.00, 0.00, 0.00
240, 45880.35, 55920.44, 55219.94, -187500.02, -187500.02, 43696.07, 43564.51, -187500.02, 0.00, 0.00, 0.00
241, 45738.89, 55869.03, 55388.43, -187500.02, -187500.02, 43621.77, 43637.31, -187500.02, 0.00, 0.00, 0.00
242, 45633.10, 55578.55, 55092.02, -187500.02, -187500.02, 43901.93, 44056.92, -187500.02, 0.00, 0.00, 0.00
243, 45780.37, 55613.91, 54887.70, -187500.02, -187500.02, 44036.46, 44046.08, -187500.02, 0.00, 0.00, 0.00
244, 45924.65, 55928.29, 55183.46, -187500.02, -187500.02, 43795.38, 43634.65, -187500.02, 0.00, 0.00, 0.00
245, 45808.73, 55948.71, 55428.41, -187500.02, -187500.02, 43636.93, 43597.19, -187500.02, 0.00, 0.00, 0.00
246, 45679.81, 55655.91, 55190.48, -187500.02, -187500.02, 43880.63, 44023.97, -187500.02, 0.00, 0.00, 0.00
247, 45764.97, 55596.05, 54935.67, -187500.02, -187500.02, 44049.45, 44073.75, -187500.02, 0.00, 0.00, 0.00
248, 45908.96, 55881.59, 55171.95, -187500.02, -187500.02, 43830.43, 43679.73, -187500.02, 0.00, 0.00, 0.00
249, 45842.40, 55974.96, 55466.72, -187500.02, -187500.02, 43645.69, 43581.52, -187500.02, 0.00, 0.00, 0.00
250, 45703.26, 55716.21, 55317.97, -187500.02, -187500.02, 43849.34, 43965.34, -187500.02, 0.00, 0.00, 0.00
251, 45743.27, 55578.97, 55010.73, -187500.02, -187500.02, 44071.78, 44126.28, -187500.02, 0.00, 0.00, 0.00
252, 45912.61, 55828.62, 55151.12, -187500.02, -187500.02, 43916.37, 43770.28, -187500.02, 0.00, 0.00, 0.00
253, 45880.89, 55985.06, 55487.46, -187500.02, -187500.02, 43660.11, 43542.25, -187500.02, 0.00, 0.00, 0.00
254, 45720.58, 55752.00, 55402.24, -187500.02, -187500.02, 43783.89, 43865.52, -187500.02, 0.00, 0.00, 0.00
255, 45712.20, 55545.54, 55056.50, -187500.02, -187500.02, 44037.65, 44119.66, -187500.02, 0.00, 0.00, 0.00
0, 45889.11, 55755.89, 55101.72, -187500.02, -187500.02, 43962.17, 43843.13, -187500.02, 0.00, 0.00, 0.00
1, 45886.39, 55975.56, 55467.57, -187500.02, -187500.02, 43666.55, 43505.12, -187500.02, 0.00, 0.00, 0.00
2, 45709.94, 55793.26, 55485.52, -187500.02, -187500.02, 43700.70, 43732.95, -187500.02, 0.00, 0.00, 0.00
3, 45657.28, 55535.57, 55144.52, -187500.02, -187500.02, 43973.48, 44075.31, -187500.02, 0.00, 0.00, 0.00
4, 45824.90, 55678.60, 55093.34, -187500.02, -187500.02, 43974.48, 43894.04, -187500.02, 0.00, 0.00, 0.00
5, 45895.17, 55942.84, 55436.06, -187500.02, -187500.02, 43711.94, 43544.53, -187500.02, 0.00, 0.00, 0.00
6, 45751.40, 55836.69, 55536.80, -187500.02, -187500.02, 43694.48, 43695.27, -187500.02, 0.00, 0.00, 0.00
7, 45660.68, 55557.45, 55224.32, -187500.02, -187500.02, 43960.45, 44063.80, -187500.02, 0.00, 0.00, 0.00
8, 45798.59, 55627.43, 55090.77, -187500.02, -187500.02, 44014.81, 43943.17, -187500.02, 0.00, 0.00, 0.00
9, 45915.93, 55901.35, 55380.58, -187500.02, -187500.02, 43776.63, 43609.17, -187500.02, 0.00, 0.00, 0.00
10, 45789.09, 55864.79, 55563.71, -187500.02, -187500.02, 43663.19, 43607.27, -187500.02, 0.00, 0.00, 0.00
11, 45648.65, 55569.43, 55313.70, -187500.02, -187500.02, 43871.69, 43976.56, -187500.02, 0.00, 0.00, 0.00
12, 45784.51, 55568.80, 55088.27, -187500.02, -187500.02, 44036.71, 44033.00, -187500.02, 0.00, 0.00, 0.00
13, 45918.82, 55853.50, 55342.94, -187500.02, -187500.02, 43808.23, 43648.26, -187500.02, 0.00, 0.00, 0.00
14, 45808.20, 55887.79, 55591.56, -187500.02, -187500.02, 43627.23, 43565.20, -187500.02, 0.00, 0.00, 0.00
15, 45644.34, 55605.53, 55414.13, -187500.02, -187500.02, 43792.25, 43892.39, -187500.02, 0.00, 0.00, 0.00
16, 45723.87, 55519.74, 55139.36, -187500.02, -187500.02, 43987.96, 44042.14, -187500.02, 0.00, 0.00, 0.00
17, 45917.14, 55791.92, 55309.23, -187500.02, -187500.02, 43852.63, 43752.06, -187500.02, 0.00, 0.00, 0.00
18, 45859.25, 55906.83, 55602.33, -187500.02, -187500.02, 43643.70, 43574.19, -187500.02, 0.00, 0.00, 0.00
19, 45661.89, 55659.55, 55509.75, -187500.02, -187500.02, 43744.04, 43832.62, -187500.02, 0.00, 0.00, 0.00
20, 45677.46, 55494.98, 55185.92, -187500.02, -187500.02, 43982.87, 44076.27, -187500.02, 0.00, 0.00, 0.00
21, 45850.31, 55715.41, 55271.70, -187500.02, -187500.02, 43882.64, 43790.66, -187500.02, 0.00, 0.00, 0.00
22, 45837.10, 55883.83, 55593.97, -187500.02, -187500.02, 43626.98, 43519.27, -187500.02, 0.00, 0.00, 0.00
23, 45659.07, 55675.31, 55564.51, -187500.02, -187500.02, 43674.93, 43741.85, -187500.02, 0.00, 0.00, 0.00
24, 45639.45, 55462.21, 55223.85, -187500.02, -187500.02, 43939.57, 44051.89, -187500.02, 0.00, 0.00, 0.00
25, 45835.11, 55642.05, 55227.98, -187500.02, -187500.02, 43906.22, 43838.77, -187500.02, 0.00, 0.00, 0.00
26, 45910.55, 55859.49, 55534.47, -187500.02, -187500.02, 43665.90, 43551.59, -187500.02, 0.00, 0.00, 0.00
27, 45748.57, 55704.66, 55577.52, -187500.02, -187500.02, 43640.64, 43664.20, -187500.02, 0.00, 0.00, 0.00
28, 45662.40, 55447.16, 55251.99, -187500.02, -187500.02, 43879.51, 43990.42, -187500.02, 0.00, 0.00, 0.00
29, 45829.01, 55559.62, 55173.11, -187500.02, -187500.02, 43911.23, 43857.45, -187500.02, 0.00, 0.00, 0.00
30, 45951.45, 55803.95, 55453.76, -187500.02, -187500.02, 43690.30, 43560.44, -187500.02, 0.00, 0.00, 0.00
31, 45817.57, 55716.26, 55544.80, -187500.02, -187500.02, 43627.43, 43617.06, -187500.02, 0.00, 0.00, 0.00
32, 45688.93, 55443.99, 55251.88, -187500.02, -187500.02, 43835.41, 43943.28, -187500.02, 0.00, 0.00, 0.00
33, 45828.92, 55492.83, 55077.51, -187500.02, -187500.02, 43943.73, 43919.46, -187500.02, 0.00, 0.00, 0.00
34, 45971.79, 55756.94, 55337.17, -187500.02, -187500.02, 43726.56, 43565.34, -187500.02, 0.00, 0.00, 0.00
35, 45862.61, 55738.63, 55521.11, -187500.02, -187500.02, 43590.66, 43543.45, -187500.02, 0.00, 0.00, 0.00
36, 45712.63, 55465.47, 55283.04, -187500.02, -187500.02, 43778.39, 43882.87, -187500.02, 0.00, 0.00, 0.00
37, 45805.00, 55440.73, 55052.97, -187500.02, -187500.02, 43931.26, 43936.60, -187500.02, 0.00, 0.00, 0.00
38, 45967.77, 55701.80, 55277.49, -187500.02, -187500.02, 43739.30, 43591.00, -187500.02, 0.00, 0.00, 0.00
39, 45908.16, 55750.79, 55496.99, -187500.02, -187500.02, 43583.26, 43520.84, -187500.02, 0.00, 0.00, 0.00
40, 45739.65, 55495.65, 55313.14, -187500.02, -187500.02, 43728.23, 43812.39, -187500.02, 0.00, 0.00, 0.00
41, 45781.02, 55395.76, 55006.12, -187500.02, -187500.02, 43932.64, 43976.23, -187500.02, 0.00, 0.00, 0.00
42, 45964.50, 55635.90, 55131.11, -187500.02, -187500.02, 43811.23, 43675.51, -187500.02, 0.00, 0.00, 0.00
43, 45928.23, 55750.50, 55411.27, -187500.02, -187500.02, 43574.07, 43455.30, -187500.02, 0.00, 0.00, 0.00
44, 45738.33, 55518.82, 55299.09, -187500.02, -187500.02, 43648.62, 43700.70, -187500.02, 0.00, 0.00, 0.00
45, 45710.70, 55353.40, 54977.42, -187500.02, -187500.02, 43851.55, 43903.99, -187500.02, 0.00, 0.00, 0.00
46, 45881.13, 55545.04, 55026.30, -187500.02, -187500.02, 43775.75, 43664.80, -187500.02, 0.00, 0.00, 0.00
47, 45890.57, 55708.23, 55324.14, -187500.02, -187500.02, 43529.98, 43395.22, -187500.02, 0.00, 0.00, 0.00
48, 45704.55, 55520.39, 55297.54, -187500.02, -187500.02, 43534.40, 43567.15, -187500.02, 0.00, 0.00, 0.00
49, 45645.41, 55317.30, 54975.72, -187500.02, -187500.02, 43764.80, 43858.34, -187500.02, 0.00, 0.00, 0.00
50, 45807.42, 55468.51, 54968.32, -187500.02, -187500.02, 43757.88, 43688.92, -187500.02, 0.00, 0.00, 0.00
51, 45867.72, 55674.68, 55272.71, -187500.02, -187500.02, 43535.25, 43414.60, -187500.02, 0.00, 0.00, 0.00
52, 45713.47, 55554.72, 55312.39, -187500.02, -187500.02, 43518.53, 43544.57, -187500.02, 0.00, 0.00, 0.00
53, 45603.52, 55333.69, 55021.75, -187500.02, -187500.02, 43724.59, 43820.91, -187500.02, 0.00, 0.00, 0.00
54, 45747.78, 55427.83, 54916.74, -187500.02, -187500.02, 43788.21, 43775.27, -187500.02, 0.00, 0.00, 0.00
55, 45854.69, 55656.54, 55182.45, -187500.02, -187500.02, 43584.58, 43463.95, -187500.02, 0.00, 0.00, 0.00
56, 45693.18, 55586.02, 55312.68, -187500.02, -187500.02, 43462.18, 43452.32, -187500.02, 0.00, 0.00, 0.00
57, 45553.34, 55342.20, 55051.81, -187500.02, -187500.02, 43646.27, 43753.32, -187500.02, 0.00, 0.00, 0.00
58, 45665.91, 55374.25, 54899.91, -187500.02, -187500.02, 43749.09, 43739.70, -187500.02, 0.00, 0.00, 0.00
59, 45821.39, 55599.43, 55126.55, -187500.02, -187500.02, 43577.25, 43466.68, -187500.02, 0.00, 0.00, 0.00
60, 45755.90, 55594.62, 55285.90, -187500.02, -187500.02, 43459.12, 43425.82, -187500.02, 0.00, 0.00, 0.00
61, 45591.50, 55362.95, 55090.32, -187500.02, -187500.02, 43566.70, 43640.66, -187500.02, 0.00, 0.00, 0.00
62, 45648.65, 55323.49, 54863.16, -187500.02, -187500.02, 43705.95, 43726.45, -187500.02, 0.00, 0.00, 0.00
63, 45840.50, 55543.01, 55028.34, -187500.02, -187500.02, 43602.39, 43490.93, -187500.02, 0.00, 0.00, 0.00
64, 45820.58, 55601.21, 55252.59, -187500.02, -187500.02, 43446.27, 43372.13, -187500.02, 0.00, 0.00, 0.00
65, 45668.52, 55400.72, 55126.89, -187500.02, -187500.02, 43523.36, 43567.28, -187500.02, 0.00, 0.00, 0.00
66, 45676.04, 55311.27, 54871.25, -187500.02, -187500.02, 43678.53, 43702.82, -187500.02, 0.00, 0.00, 0.00
67, 45854.58, 55501.91, 54971.43, -187500.02, -187500.02, 43620.07, 43517.30, -187500.02, 0.00, 0.00, 0.00
68, 45863.72, 55614.40, 55236.19, -187500.02, -187500.02, 43441.31, 43329.17, -187500.02, 0.00, 0.00, 0.00
69, 45698.68, 55448.11, 55175.28, -187500.02, -187500.02, 43472.73, 43503.96, -187500.02, 0.00, 0.00, 0.00
70, 45665.44, 55319.25, 54891.81, -187500.02, -187500.02, 43661.43, 43706.69, -187500.02, 0.00, 0.00, 0.00
71, 45823.96, 55465.09, 54914.12, -187500.02, -187500.02, 43648.73, 43553.04, -187500.02, 0.00, 0.00, 0.00
72, 45874.14, 55604.84, 55189.92, -187500.02, -187500.02, 43468.13, 43343.00, -187500.02, 0.00, 0.00, 0.00
73, 45747.71, 55492.03, 55197.03, -187500.02, -187500.02, 43484.87, 43500.27, -187500.02, 0.00, 0.00, 0.00
74, 45689.40, 55352.17, 54930.66, -187500.02, -187500.02, 43675.62, 43735.95, -187500.02, 0.00, 0.00, 0.00
75, 45814.84, 55457.94, 54910.55, -187500.02, -187500.02, 43685.23, 43608.95, -187500.02, 0.00, 0.00, 0.00
76, 45883.50, 55605.95, 55184.98, -187500.02, -187500.02, 43503.00, 43370.18, -187500.02, 0.00, 0.00, 0.00
77, 45760.75, 55519.29, 55261.63, -187500.02, -187500.02, 43448.10, 43424.36, -187500.02, 0.00, 0.00, 0.00
78, 45676.14, 55358.41, 55007.06, -187500.02, -187500.02, 43624.48, 43691.91, -187500.02, 0.00, 0.00, 0.00
79, 45784.51, 55419.83, 54899.13, -187500.02, -187500.02, 43710.20, 43667.73, -187500.02, 0.00, 0.00, 0.00
80, 45860.95, 55574.91, 55156.53, -187500.02, -187500.02, 43536.57, 43384.98, -187500.02, 0.00, 0.00, 0.00
81, 45762.38, 55533.24, 55298.37, -187500.02, -187500.02, 43439.99, 43386.30, -187500.02, 0.00, 0.00, 0.00
82, 45666.36, 55379.71, 55096.18, -187500.02, -187500.02, 43572.73, 43634.76, -187500.02, 0.00, 0.00, 0.00
83, 45758.45, 55399.76, 54926.41, -187500.02, -187500.02, 43699.80, 43684.92, -187500.02, 0.00, 0.00, 0.00
84, 45860.59, 55538.25, 55123.85, -187500.02, -187500.02, 43568.76, 43442.65, -187500.02, 0.00, 0.00, 0.00
85, 45795.71, 55527.81, 55304.32, -187500.02, -187500.02, 43444.93, 43370.99, -187500.02, 0.00, 0.00, 0.00
86, 45685.11, 55394.48, 55178.57, -187500.02, -187500.02, 43521.41, 43559.86, -187500.02, 0.00, 0.00, 0.00
87, 45745.44, 55384.71, 54983.08, -187500.02, -187500.02, 43675.04, 43680.96, -187500.02, 0.00, 0.00, 0.00
88, 45861.02, 55516.84, 55131.96, -187500.02, -187500.02, 43599.42, 43484.42, -187500.02, 0.00, 0.00, 0.00
89, 45839.98, 55547.12, 55338.89, -187500.02, -187500.02, 43469.13, 43390.73, -187500.02, 0.00, 0.00, 0.00
90, 45750.31, 55444.04, 55266.03, -187500.02, -187500.02, 43515.20, 43532.17, -187500.02, 0.00, 0.00, 0.00
91, 45755.23, 55403.36, 55065.60, -187500.02, -187500.02, 43647.01, 43652.87, -187500.02, 0.00, 0.00, 0.00
92, 45837.28, 55500.90, 55154.52, -187500.02, -187500.02, 43606.48, 43492.11, -187500.02, 0.00, 0.00, 0.00
93, 45817.07, 55538.79, 55379.08, -187500.02, -187500.02, 43460.95, 43349.66, -187500.02, 0.00, 0.00, 0.00
94, 45736.90, 55447.57, 55357.09, -187500.02, -187500.02, 43475.57, 43461.25, -187500.02, 0.00, 0.00, 0.00
95, 45746.60, 55402.46, 55161.38, -187500.02, -187500.02, 43622.20, 43611.56, -187500.02, 0.00, 0.00, 0.00
96, 45819.80, 55492.52, 55214.42, -187500.02, -187500.02, 43613.66, 43488.02, -187500.02, 0.00, 0.00, 0.00
97, 45815.24, 55550.03, 55458.01, -187500.02, -187500.02, 43474.05, 43326.29, -187500.02, 0.00, 0.00, 0.00
98, 45753.21, 55486.93, 55506.62, -187500.02, -187500.02, 43459.37, 43411.02, -187500.02, 0.00, 0.00, 0.00
99, 45758.51, 55432.46, 55319.52, -187500.02, -187500.02, 43605.23, 43603.25, -187500.02, 0.00, 0.00, 0.00
100, 45843.56, 55502.38, 55290.91, -187500.02, -187500.02, 43656.44, 43555.19, -187500.02, 0.00, 0.00, 0.00
101, 45859.34, 55572.67, 55505.41, -187500.02, -187500.02, 43531.68, 43365.98, -187500.02, 0.00, 0.00, 0.00
102, 45786.03, 55523.05, 55608.52, -187500.02, -187500.02, 43449.69, 43365.16, -187500.02, 0.00, 0.00, 0.00
103, 45781.60, 55457.87, 55457.78, -187500.02, -187500.02, 43570.43, 43559.75, -187500.02, 0.00, 0.00, 0.00
104, 45857.08, 55502.35, 55369.65, -187500.02, -187500.02, 43669.81, 43585.39, -187500.02, 0.00, 0.00, 0.00
105, 45878.00, 55576.98, 55548.78, -187500.02, -187500.02, 43567.64, 43382.03, -187500.02, 0.00, 0.00, 0.00
106, 45821.03, 55553.29, 55695.89, -187500.02, -187500.02, 43469.70, 43346.20, -187500.02, 0.00, 0.00, 0.00
107, 45809.23, 55488.98, 55608.48, -187500.02, -187500.02, 43554.12, 43509.23, -187500.02, 0.00, 0.00, 0.00
108, 45861.96, 55513.26, 55516.61, -187500.02, -187500.02, 43655.95, 43548.71, -187500.02, 0.00, 0.00, 0.00
109, 45896.38, 55579.93, 55640.84, -187500.02, -187500.02, 43601.52, 43418.44, -187500.02, 0.00, 0.00, 0.00
110, 45850.73, 55568.51, 55797.33, -187500.02, -187500.02, 43492.94, 43330.11, -187500.02, 0.00, 0.00, 0.00
111, 45842.00, 55497.57, 55738.63, -187500.02, -187500.02, 43543.79, 43471.57, -187500.02, 0.00, 0.00, 0.00
112, 45910.30, 55510.76, 55619.05, -187500.02, -187500.02, 43675.64, 43568.09, -187500.02, 0.00, 0.00, 0.00
113, 45934.38, 55582.62, 55730.86, -187500.02, -187500.02, 43628.77, 43408.50, -187500.02, 0.00, 0.00, 0.00
114, 45895.48, 55588.92, 55901.44, -187500.02, -187500.02, 43518.24, 43326.51, -187500.02, 0.00, 0.00, 0.00
115, 45893.23, 55525.35, 55881.41, -187500.02, -187500.02, 43550.67, 43447.95, -187500.02, 0.00, 0.00, 0.00
116, 45954.76, 55517.20, 55751.13, -187500.02, -187500.02, 43669.00, 43561.09, -187500.02, 0.00, 0.00, 0.00
117, 46011.45, 55589.25, 55789.80, -187500.02, -187500.02, 43683.96, 43485.05, -187500.02, 0.00, 0.00, 0.00
118, 45992.31, 55621.18, 55959.85, -187500.02, -187500.02, 43576.09, 43346.47, -187500.02, 0.00, 0.00, 0.00
119, 45973.34, 55575.33, 56016.35, -187500.02, -187500.02, 43535.68, 43377.31, -187500.02, 0.00, 0.00, 0.00
120, 46022.82, 55558.25, 55945.92, -187500.02, -187500.02, 43626.47, 43497.39, -187500.02, 0.00, 0.00, 0.00
121, 46062.00, 55620.70, 55989.08, -187500.02, -187500.02, 43653.31, 43443.59, -187500.02, 0.00, 0.00, 0.00
122, 46020.05, 55658.82, 56181.60, -187500.02, -187500.02, 43541.33, 43294.34, -187500.02, 0.00, 0.00, 0.00
123, 45998.61, 55614.47, 56259.41, -187500.02, -187500.02, 43512.21, 43354.27, -187500.02, 0.00, 0.00, 0.00
124, 46063.95, 55598.46, 56207.28, -187500.02, -187500.02, 43614.58, 43490.52, -187500.02, 0.00, 0.00, 0.00
125, 46104.61, 55668.65, 56263.38, -187500.02, -187500.02, 43642.29, 43423.49, -187500.02, 0.00, 0.00, 0.00
126, 46064.64, 55721.36, 56468.86, -187500.02, -187500.02, 43543.63, 43272.77, -187500.02, 0.00, 0.00, 0.00
127, 46024.68, 55692.86, 56618.62, -187500.02, -187500.02, 43480.76, 43284.20, -187500.02, 0.00, 0.00, 0.00
128, 46067.21, 55662.61, 56627.25, -187500.02, -187500.02, 43566.97, 43435.34, -187500.02, 0.00, 0.00, 0.00
129, 46104.56, 55688.54, 56666.68, -187500.02, -187500.02, 43654.25, 43467.44, -187500.02, 0.00, 0.00, 0.00
130, 45999.51, 55808.64, 56862.19, -187500.02, -187500.02, 43582.68, 43315.96, -187500.02, 0.00, 0.00, 0.00
131, 45972.46, 55900.35, 57075.54, -187500.02, -187500.02, 43491.82, 43275.64, -187500.02, 0.00, 0.00, 0.00
132, 46131.77, 55812.30, 57159.27, -187500.02, -187500.02, 43539.77, 43400.02, -187500.02, 0.00, 0.00, 0.00
133, 46285.52, 55780.74, 57198.89, -187500.02, -187500.02, 43629.80, 43454.94, -187500.02, 0.00, 0.00, 0.00
134, 46272.04, 55862.13, 57369.41, -187500.02, -187500.02, 43571.44, 43315.36, -187500.02, 0.00, 0.00, 0.00
135, 46053.67, 55895.70, 57502.81, -187500.02, -187500.02, 43497.86, 43289.54, -187500.02, 0.00, 0.00, 0.00
136, 45970.16, 55797.29, 57509.54, -187500.02, -187500.02, 43536.05, 43413.64, -187500.02, 0.00, 0.00, 0.00
137, 46002.14, 55743.19, 57436.43, -187500.02, -187500.02, 43650.90, 43523.98, -187500.02, 0.00, 0.00, 0.00
138, 46088.82, 55739.68, 57474.43, -187500.02, -187500.02, 43641.96, 43439.41, -187500.02, 0.00, 0.00, 0.00
139, 45980.71, 55686.26, 57636.09, -187500.02, -187500.02, 43544.30, 43338.60, -187500.02, 0.00, 0.00, 0.00
140, 45903.80, 55525.17, 57599.26, -187500.02, -187500.02, 43522.40, 43405.86, -187500.02, 0.00, 0.00, 0.00
141, 46014.11, 55417.26, 57463.43, -187500.02, -187500.02, 43656.44, 43569.89, -187500.02, 0.00, 0.00, 0.00
142, 46062.77, 55458.30, 57538.33, -187500.02, -187500.02, 43674.84, 43484.27, -187500.02, 0.00, 0.00, 0.00
143, 45964.35, 55478.77, 57708.76, -187500.02, -187500.02, 43586.88, 43373.02, -187500.02, 0.00, 0.00, 0.00
144, 45856.19, 55442.11, 57872.55, -187500.02, -187500.02, 43553.60, 43395.31, -187500.02, 0.00, 0.00, 0.00
145, 45829.77, 55452.91, 57897.07, -187500.02, -187500.02, 43647.82, 43507.76, -187500.02, 0.00, 0.00, 0.00
146, 45840.25, 55504.90, 57970.90, -187500.02, -187500.02, 43704.79, 43492.34, -187500.02, 0.00, 0.00, 0.00
147, 45799.19, 55472.07, 58178.26, -187500.02, -187500.02, 43613.15, 43334.09, -187500.02, 0.00, 0.00, 0.00
148, 45701.96, 55347.68, 58298.00, -187500.02, -187500.02, 43563.82, 43333.46, -187500.02, 0.00, 0.00, 0.00
149, 45641.01, 55250.52, 58404.04, -187500.02, -187500.02, 43649.04, 43479.02, -187500.02, 0.00, 0.00, 0.00
150, 45579.09, 55259.14, 58640.56, -187500.02, -187500.02, 43740.11, 43544.17, -187500.02, 0.00, 0.00, 0.00
151, 45421.94, 55289.03, 59056.50, -187500.02, -187500.02, 43663.59, 43424.39, -187500.02, 0.00, 0.00, 0.00
152, 45297.42, 55267.48, 59462.28, -187500.02, -187500.02, 43584.96, 43411.40, -187500.02, 0.00, 0.00, 0.00
153, 45315.23, 55230.67, 59601.62, -187500.02, -187500.02, 43641.09, 43545.53, -187500.02, 0.00, 0.00, 0.00
154, 45373.41, 55286.55, 59625.22, -187500.02, -187500.02, 43743.82, 43596.38, -187500.02, 0.00, 0.00, 0.00
155, 45326.70, 55335.95, 59808.97, -187500.02, -187500.02, 43691.94, 43443.81, -187500.02, 0.00, 0.00, 0.00
156, 45243.55, 55301.30, 59991.79, -187500.02, -187500.02, 43589.88, 43366.36, -187500.02, 0.00, 0.00, 0.00
157, 45239.28, 55252.71, 60007.44, -187500.02, -187500.02, 43627.95, 43498.17, -187500.02, 0.00, 0.00, 0.00
158, 45246.10, 55276.46, 60055.69, -187500.02, -187500.02, 43723.21, 43580.13, -187500.02, 0.00, 0.00, 0.00
159, 45240.02, 55349.40, 60269.53, -187500.02, -187500.02, 43679.62, 43458.61, -187500.02, 0.00, 0.00, 0.00
160, 45248.22, 55388.22, 60400.02, -187500.02, -187500.02, 43586.04, 43397.54, -187500.02, 0.00, 0.00, 0.00
161, 45244.18, 55358.09, 60440.32, -187500.02, -187500.02, 43608.70, 43522.85, -187500.02, 0.00, 0.00, 0.00
162, 45305.62, 55343.23, 60455.97, -187500.02, -187500.02, 43702.11, 43593.86, -187500.02, 0.00, 0.00, 0.00
163, 45360.98, 55362.09, 60510.33, -187500.02, -187500.02, 43689.25, 43513.48, -187500.02, 0.00, 0.00, 0.00
164, 45339.75, 55318.06, 60681.72, -187500.02, -187500.02, 43593.37, 43394.75, -187500.02, 0.00, 0.00, 0.00
165, 45388.93, 55218.08, 60767.26, -187500.02, -187500.02, 43582.46, 43423.13, -187500.02, 0.00, 0.00, 0.00
166, 45526.93, 55157.71, 60808.79, -187500.02, -187500.02, 43708.10, 43534.56, -187500.02, 0.00, 0.00, 0.00
167, 45606.07, 55171.79, 61047.11, -187500.02, -187500.02, 43717.51, 43432.90, -187500.02, 0.00, 0.00, 0.00
168, 45551.89, 55155.57, 61691.91, -187500.02, -187500.02, 43583.78, 43260.95, -187500.02, 0.00, 0.00, 0.00
169, 45466.38, 55064.88, 62668.86, -187500.02, -187500.02, 43510.33, 43260.08, -187500.02, 0.00, 0.00, 0.00
170, 45438.19, 55035.58, 63741.77, -187500.02, -187500.02, 43558.54, 43348.37, -187500.02, 0.00, 0.00, 0.00
171, 45406.43, 55133.21, 65025.25, -187500.02, -187500.02, 43584.76, 43263.41, -187500.02, 0.00, 0.00, 0.00
172, 45288.95, 55170.54, 66584.48, -187500.02, -187500.02, 43472.84, 43082.20, -187500.02, 0.00, 0.00, 0.00
173, 45207.07, 55175.91, 67826.10, -187500.02, -187500.02, 43391.24, 43044.12, -187500.02, 0.00, 0.00, 0.00
174, 45172.38, 55213.46, 68504.32, -187500.02, -187500.02, 43464.26, 43196.98, -187500.02, 0.00, 0.00, 0.00
175, 45458.29, 55303.71, 68435.49, -187500.02, -187500.02, 43557.09, 43249.17, -187500.02, 0.00, 0.00, 0.00
176, 45577.64, 55351.30, 68448.37, -187500.02, -187500.02, 43520.59, 43157.06, -187500.02, 0.00, 0.00, 0.00
177, 45402.45, 55354.72, 68983.12, -187500.02, -187500.02, 43437.71, 43118.48, -187500.02, 0.00, 0.00, 0.00
178, 45386.89, 55356.62, 69093.64, -187500.02, -187500.02, 43498.91, 43289.72, -187500.02, 0.00, 0.00, 0.00
179, 45484.64, 55416.54, 68957.21, -187500.02, -187500.02, 43621.35, 43392.42, -187500.02, 0.00, 0.00, 0.00
180, 45573.80, 55516.10, 68864.41, -187500.02, -187500.02, 43581.09, 43253.55, -187500.02, 0.00, 0.00, 0.00
181, 45435.29, 55513.71, 69308.98, -187500.02, -187500.02, 43473.09, 43172.50, -187500.02, 0.00, 0.00, 0.00
182, 45417.04, 55486.32, 69492.22, -187500.02, -187500.02, 43507.07, 43303.66, -187500.02, 0.00, 0.00, 0.00
183, 45536.67, 55532.15, 69229.20, -187500.02, -187500.02, 43660.02, 43459.81, -187500.02, 0.00, 0.00, 0.00
184, 45456.85, 55631.39, 69060.72, -187500.02, -187500.02, 43698.98, 43400.52, -187500.02, 0.00, 0.00, 0.00
185, 45252.60, 55621.13, 69060.70, -187500.02, -187500.02, 43619.41, 43302.21, -187500.02, 0.00, 0.00, 0.00
186, 45137.56, 55533.11, 68890.94, -187500.02, -187500.02, 43642.27, 43415.56, -187500.02, 0.00, 0.00, 0.00
187, 45152.60, 55519.25, 68554.61, -187500.02, -187500.02, 43773.01, 43557.13, -187500.02, 0.00, 0.00, 0.00
188, 45118.58, 55578.46, 68364.08, -187500.02, -187500.02, 43781.95, 43468.69, -187500.02, 0.00, 0.00, 0.00
189, 45030.80, 55587.11, 68289.02, -187500.02, -187500.02, 43687.29, 43365.80, -187500.02, 0.00, 0.00, 0.00
190, 45027.16, 55518.27, 68138.64, -187500.02, -187500.02, 43670.77, 43428.90, -187500.02, 0.00, 0.00, 0.00
191, 45122.79, 55496.77, 68063.83, -187500.02, -187500.02, 43742.18, 43525.57, -187500.02, 0.00, 0.00, 0.00
192, 45170.32, 55538.68, 68005.20, -187500.02, -187500.02, 43766.59, 43483.66, -187500.02, 0.00, 0.00, 0.00
193, 45126.18, 55541.54, 68044.95, -187500.02, -187500.02, 43688.50, 43375.70, -187500.02, 0.00, 0.00, 0.00
194, 45123.72, 55478.66, 68145.70, -187500.02, -187500.02, 43662.14, 43418.64, -187500.02, 0.00, 0.00, 0.00
195, 45203.88, 55438.54, 68130.15, -187500.02, -187500.02, 43744.62, 43538.61, -187500.02, 0.00, 0.00, 0.00
196, 45289.04, 55501.82, 68174.07, -187500.02, -187500.02, 43809.02, 43530.33, -187500.02, 0.00, 0.00, 0.00
197, 45370.62, 55577.41, 68394.21, -187500.02, -187500.02, 43724.05, 43384.38, -187500.02, 0.00, 0.00, 0.00
198, 45501.20, 55575.29, 68525.20, -187500.02, -187500.02, 43659.13, 43387.02, -187500.02, 0.00, 0.00, 0.00
199, 45614.59, 55547.82, 68491.73, -187500.02, -187500.02, 43740.62, 43536.19, -187500.02, 0.00, 0.00, 0.00
200, 45660.61, 55586.91, 68489.52, -187500.02, -187500.02, 43817.33, 43569.38, -187500.02, 0.00, 0.00, 0.00
201, 45606.88, 55637.11, 68545.98, -187500.02, -187500.02, 43789.59, 43495.44, -187500.02, 0.00, 0.00, 0.00
202, 45554.66, 55611.77, 68582.28, -187500.02, -187500.02, 43753.16, 43518.89, -187500.02, 0.00, 0.00, 0.00
203, 45464.52, 55557.02, 68451.81, -187500.02, -187500.02, 43812.05, 43614.73, -187500.02, 0.00, 0.00, 0.00
204, 45326.41, 55587.07, 68177.69, -187500.02, -187500.02, 43927.95, 43671.15, -187500.02, 0.00, 0.00, 0.00
205, 45182.78, 55684.77, 68150.87, -187500.02, -187500.02, 43896.30, 43547.30, -187500.02, 0.00, 0.00, 0.00
206, 45060.64, 55695.80, 68329.88, -187500.02, -187500.02, 43769.81, 43448.17, -187500.02, 0.00, 0.00, 0.00
207, 45071.49, 55630.67, 68285.80, -187500.02, -187500.02, 43771.96, 43567.68, -187500.02, 0.00, 0.00, 0.00
208, 45078.06, 55639.88, 68217.41, -187500.02, -187500.02, 43901.24, 43710.69, -187500.02, 0.00, 0.00, 0.00
209, 44651.23, 55749.79, 68985.30, -187500.02, -187500.02, 43882.71, 43568.42, -187500.02, 0.00, 0.00, 0.00
210, 44007.36, 55771.18, 70798.16, -187500.02, -187500.02, 43747.88, 43409.07, -187500.02, 0.00, 0.00, 0.00
211, 43609.39, 55678.04, 73000.37, -187500.02, -187500.02, 43662.52, 43357.60, -187500.02, 0.00, 0.00, 0.00
212, 43181.69, 55595.78, 75808.24, -187500.02, -187500.02, 43685.16, 43374.23, -187500.02, 0.00, 0.00, 0.00
213, 43078.74, 55515.92, 78795.17, -187500.02, -187500.02, 43599.82, 43191.14, -187500.02, 0.00, 0.00, 0.00
214, 43192.24, 55307.67, 81250.02, -187500.02, -187500.02, 43452.13, 43047.56, -187500.02, 0.00, 0.00, 0.00
215, 43225.23, 55108.80, 83697.40, -187500.02, -187500.02, 43389.83, 43068.75, -187500.02, 0.00, 0.00, 0.00
216, 43812.30, 55078.09, 84413.30, -187500.02, -187500.02, 43504.79, 43283.46, -187500.02, 0.00, 0.00, 0.00
217, 44261.32, 55238.22, 84354.54, -187500.02, -187500.02, 43623.77, 43345.86, -187500.02, 0.00, 0.00, 0.00
218, 44471.01, 55373.34, 84255.13, -187500.02, -187500.02, 43584.16, 43272.11, -187500.02, 0.00, 0.00, 0.00
219, 44621.10, 55367.93, 84101.32, -187500.02, -187500.02, 43595.11, 43356.06, -187500.02, 0.00, 0.00, 0.00
220, 44811.80, 55336.32, 83866.31, -187500.02, -187500.02, 43703.14, 43516.86, -187500.02, 0.00, 0.00, 0.00
221, 44911.71, 55357.25, 84041.84, -187500.02, -187500.02, 43777.93, 43509.23, -187500.02, 0.00, 0.00, 0.00
222, 44899.63, 55336.91, 84680.90, -187500.02, -187500.02, 43697.30, 43369.89, -187500.02, 0.00, 0.00, 0.00
223, 44936.26, 55193.68, 85304.06, -187500.02, -187500.02, 43591.55, 43298.66, -187500.02, 0.00, 0.00, 0.00
224, 44986.48, 55079.03, 85735.19, -187500.02, -187500.02, 43618.91, 43398.08, -187500.02, 0.00, 0.00, 0.00
225, 44977.09, 55153.20, 85970.51, -187500.02, -187500.02, 43718.89, 43473.98, -187500.02, 0.00, 0.00, 0.00
226, 44845.31, 55313.61, 86463.20, -187500.02, -187500.02, 43690.35, 43365.00, -187500.02, 0.00, 0.00, 0.00
227, 44710.75, 55366.70, 87086.55, -187500.02, -187500.02, 43622.29, 43341.02, -187500.02, 0.00, 0.00, 0.00
228, 44648.34, 55320.88, 87652.66, -187500.02, -187500.02, 43655.21, 43427.72, -187500.02, 0.00, 0.00, 0.00
229, 44626.66, 55344.10, 88109.57, -187500.02, -187500.02, 43714.60, 43447.30, -187500.02, 0.00, 0.00, 0.00
230, 44619.07, 55451.75, 88391.87, -187500.02, -187500.02, 43670.79, 43330.69, -187500.02, 0.00, 0.00, 0.00
231, 44674.03, 55519.50, 88408.59, -187500.02, -187500.02, 43618.55, 43321.43, -187500.02, 0.00, 0.00, 0.00
232, 44772.13, 55507.00, 88256.20, -187500.02, -187500.02, 43695.07, 43488.69, -187500.02, 0.00, 0.00, 0.00
233, 44886.91, 55492.29, 88196.25, -187500.02, -187500.02, 43820.77, 43593.41, -187500.02, 0.00, 0.00, 0.00
234, 45092.27, 55546.39, 88075.10, -187500.02, -187500.02, 43831.41, 43509.34, -187500.02, 0.00, 0.00, 0.00
235, 45382.91, 55565.74, 87810.30, -187500.02, -187500.02, 43733.73, 43385.07, -187500.02, 0.00, 0.00, 0.00
236, 45860.14, 55478.14, 87613.91, -187500.02, -187500.02, 43706.02, 43414.77, -187500.02, 0.00, 0.00, 0.00
237, 46298.93, 55324.41, 87834.17, -187500.02, -187500.02, 43781.43, 43499.46, -187500.02, 0.00, 0.00, 0.00
238, 46694.58, 55168.37, 87595.77, -187500.02, -187500.02, 43824.64, 43477.94, -187500.02, 0.00, 0.00, 0.00
239, 46966.09, 54949.84, 86956.51, -187500.02, -187500.02, 43771.33, 43404.94, -187500.02, 0.00, 0.00, 0.00
240, 47179.41, 54671.18, 86071.00, -187500.02, -187500.02, 43798.75, 43528.97, -187500.02, 0.00, 0.00, 0.00
241, 47489.21, 54460.89, 84798.70, -187500.02, -187500.02, 43954.30, 43738.16, -187500.02, 0.00, 0.00, 0.00
242, 47477.03, 54361.14, 83956.57, -187500.02, -187500.02, 44051.91, 43742.99, -187500.02, 0.00, 0.00, 0.00
243, 47021.45, 54288.41, 83922.66, -187500.02, -187500.02, 43941.38, 43561.67, -187500.02, 0.00, 0.00, 0.00
244, 46649.63, 54113.41, 84079.50, -187500.02, -187500.02, 43880.77, 43563.23, -187500.02, 0.00, 0.00, 0.00
245, 46487.07, 54000.18, 84250.00, -187500.02, -187500.02, 43911.14, 43617.15, -187500.02, 0.00, 0.00, 0.00
246, 46371.57, 53991.89, 84737.38, -187500.02, -187500.02, 43929.31, 43569.52, -187500.02, 0.00, 0.00, 0.00
247, 46174.43, 53950.47, 85733.84, -187500.02, -187500.02, 43815.99, 43379.82, -187500.02, 0.00, 0.00, 0.00
248, 45733.55, 53833.23, 87460.79, -187500.02, -187500.02, 43701.19, 43316.32, -187500.02, 0.00, 0.00, 0.00
249, 44964.85, 53617.50, 90680.02, -187500.02, -187500.02, 43666.30, 43302.14, -187500.02, 0.00, 0.00, 0.00
250, 44277.55, 53471.52, 94936.59, -187500.02, -187500.02, 43607.78, 43161.64, -187500.02, 0.00, 0.00, 0.00
251, 43894.38, 53421.85, 99179.25, -187500.02, -187500.02, 43454.50, 42938.17, -187500.02, 0.00, 0.00, 0.00
252, 43852.20, 53417.45, 102346.17, -187500.02, -187500.02, 43294.59, 42813.45, -187500.02, 0.00, 0.00, 0.00
253, 44221.23, 53491.12, 103683.23, -187500.02, -187500.02, 43326.02, 42975.50, -187500.02, 0.00, 0.00, 0.00
254, 44782.12, 53774.36, 103571.38, -187500.02, -187500.02, 43506.53, 43177.96, -187500.02, 0.00, 0.00, 0.00
255, 45213.62, 54135.90, 102881.99, -187500.02, -187500.02, 43563.28, 43159.74, -187500.02, 0.00, 0.00, 0.00
0, 45464.18, 54384.23, 101876.32, -187500.02, -187500.02, 43557.13, 43193.94, -187500.02, 0.00, 0.00, 0.00
1, 45606.63, 54494.47, 100809.45, -187500.02, -187500.02, 43649.11, 43379.23, -187500.02, 0.00, 0.00, 0.00
2, 45653.88, 54592.77, 100024.90, -187500.02, -187500.02, 43809.06, 43531.14, -187500.02, 0.00, 0.00, 0.00
3, 45543.76, 54709.67, 99802.84, -187500.02, -187500.02, 43818.45, 43438.91, -187500.02, 0.00, 0.00, 0.00
4, 45393.71, 54741.45, 99880.48, -187500.02, -187500.02, 43745.09, 43372.38, -187500.02, 0.00, 0.00, 0.00
5, 45311.23, 54688.95, 99967.57, -187500.02, -187500.02, 43724.21, 43404.38, -187500.02, 0.00, 0.00, 0.00
6, 45370.55, 54626.19, 99844.79, -187500.02, -187500.02, 43799.14, 43509.01, -187500.02, 0.00, 0.00, 0.00
7, 45448.61, 54675.58, 99715.82, -187500.02, -187500.02, 43834.03, 43466.86, -187500.02, 0.00, 0.00, 0.00
8, 45446.01, 54714.41, 99776.53, -187500.02, -187500.02, 43782.80, 43409.99, -187500.02, 0.00, 0.00, 0.00
9, 45502.96, 54639.98, 99575.14, -187500.02, -187500.02, 43757.45, 43434.82, -187500.02, 0.00, 0.00, 0.00
10, 45613.34, 54612.21, 99107.95, -187500.02, -187500.02, 43859.87, 43596.29, -187500.02, 0.00, 0.00, 0.00
11, 45692.69, 54736.43, 98796.48, -187500.02, -187500.02, 43928.17, 43584.74, -187500.02, 0.00, 0.00, 0.00
12, 45705.23, 54894.23, 98613.86, -187500.02, -187500.02, 43859.15, 43467.82, -187500.02, 0.00, 0.00, 0.00
13, 45712.64, 54954.42, 98317.20, -187500.02, -187500.02, 43785.86, 43444.39, -187500.02, 0.00, 0.00, 0.00
14, 45792.26, 54967.90, 97818.12, -187500.02, -187500.02, 43858.10, 43596.59, -187500.02, 0.00, 0.00, 0.00
15, 45923.76, 55051.41, 97239.80, -187500.02, -187500.02, 43955.78, 43635.63, -187500.02, 0.00, 0.00, 0.00
16, 45954.80, 55153.84, 96794.29, -187500.02, -187500.02, 43917.69, 43528.59, -187500.02, 0.00, 0.00, 0.00
17, 45947.65, 55189.85, 96347.26, -187500.02, -187500.02, 43858.84, 43506.55, -187500.02, 0.00, 0.00, 0.00
18, 45945.60, 55164.35, 95772.73, -187500.02, -187500.02, 43902.25, 43613.48, -187500.02, 0.00, 0.00, 0.00
19, 45936.86, 55228.39, 95279.65, -187500.02, -187500.02, 43977.17, 43668.02, -187500.02, 0.00, 0.00, 0.00
20, 45928.18, 55346.74, 94931.66, -187500.02, -187500.02, 43941.07, 43558.56, -187500.02, 0.00, 0.00, 0.00
21, 45930.02, 55346.40, 94546.38, -187500.02, -187500.02, 43857.63, 43496.07, -187500.02, 0.00, 0.00, 0.00
22, 45962.41, 55246.34, 94023.34, -187500.02, -187500.02, 43862.86, 43562.63, -187500.02, 0.00, 0.00, 0.00
23, 46047.59, 55279.06, 93504.81, -187500.02, -187500.02, 43957.57, 43661.25, -187500.02, 0.00, 0.00, 0.00
24, 46131.16, 55378.84, 93097.12, -187500.02, -187500.02, 43959.04, 43595.13, -187500.02, 0.00, 0.00, 0.00
25, 46125.24, 55411.18, 92791.48, -187500.02, -187500.02, 43862.84, 43490.14, -187500.02, 0.00, 0.00, 0.00
26, 46130.64, 55398.46, 92390.93, -187500.02, -187500.02, 43838.50, 43538.38, -187500.02, 0.00, 0.00, 0.00
27, 46175.33, 55466.50, 91918.22, -187500.02, -187500.02, 43899.36, 43607.78, -187500.02, 0.00, 0.00, 0.00
28, 46216.50, 55613.42, 91567.27, -187500.02, -187500.02, 43907.16, 43554.45, -187500.02, 0.00, 0.00, 0.00
29, 46198.06, 55736.46, 91371.67, -187500.02, -187500.02, 43826.90, 43448.97, -187500.02, 0.00, 0.00, 0.00
30, 46186.88, 55751.69, 91089.32, -187500.02, -187500.02, 43771.60, 43454.98, -187500.02, 0.00, 0.00, 0.00
31, 46257.58, 55753.54, 90601.07, -187500.02, -187500.02, 43863.62, 43589.59, -187500.02, 0.00, 0.00, 0.00
32, 46302.33, 55848.36, 90214.77, -187500.02, -187500.02, 43892.92, 43545.51, -187500.02, 0.00, 0.00, 0.00
33, 46286.97, 55929.47, 89946.26, -187500.02, -187500.02, 43819.97, 43441.95, -187500.02, 0.00, 0.00, 0.00
34, 46250.59, 55923.97, 89555.57, -187500.02, -187500.02, 43777.61, 43456.13, -187500.02, 0.00, 0.00, 0.00
35, 46274.01, 55866.80, 88994.72, -187500.02, -187500.02, 43881.68, 43623.85, -187500.02, 0.00, 0.00, 0.00
36, 46311.02, 55863.76, 88497.82, -187500.02, -187500.02, 43968.43, 43628.77, -187500.02, 0.00, 0.00, 0.00
37, 46272.60, 55838.63, 88167.17, -187500.02, -187500.02, 43916.17, 43528.43, -187500.02, 0.00, 0.00, 0.00
38, 46220.19, 55720.48, 87816.85, -187500.02, -187500.02, 43853.52, 43499.04, -187500.02, 0.00, 0.00, 0.00
39, 46231.74, 55590.64, 87334.97, -187500.02, -187500.02, 43888.86, 43584.25, -187500.02, 0.00, 0.00, 0.00
40, 46295.71, 55570.79, 86909.19, -187500.02, -187500.02, 43970.57, 43623.34, -187500.02, 0.00, 0.00, 0.00
41, 46343.52, 55534.83, 86750.65, -187500.02, -187500.02, 43927.77, 43512.77, -187500.02, 0.00, 0.00, 0.00
42, 46459.66, 55440.24, 86272.86, -187500.02, -187500.02, 43836.64, 43458.65, -187500.02, 0.00, 0.00, 0.00
43, 46722.72, 55322.89, 84973.22, -187500.02, -187500.02, 43883.74, 43595.82, -187500.02, 0.00, 0.00, 0.00
44, 46910.45, 55267.43, 83442.05, -187500.02, -187500.02, 43997.60, 43698.91, -187500.02, 0.00, 0.00, 0.00
45, 47023.26, 55275.46, 81593.21, -187500.02, -187500.02, 44019.70, 43669.34, -187500.02, 0.00, 0.00, 0.00
46, 47120.40, 55184.42, 79526.05, -187500.02, -187500.02, 44009.04, 43691.24, -187500.02, 0.00, 0.00, 0.00
47, 47142.89, 55201.54, 77355.00, -187500.02, -187500.02, 44054.80, 43788.54, -187500.02, 0.00, 0.00, 0.00
48, 47102.93, 55259.07, 75411.20, -187500.02, -187500.02, 44171.09, 43906.40, -187500.02, 0.00, 0.00, 0.00
49, 46916.71, 55385.48, 73882.41, -187500.02, -187500.02, 44177.39, 43827.61, -187500.02, 0.00, 0.00, 0.00
50, 46641.59, 55442.36, 72718.63, -187500.02, -187500.02, 44078.91, 43713.30, -187500.02, 0.00, 0.00, 0.00
51, 46436.04, 55423.41, 71713.60, -187500.02, -187500.02, 44066.62, 43787.31, -187500.02, 0.00, 0.00, 0.00
52, 46287.00, 55540.13, 70714.30, -187500.02, -187500.02, 44142.82, 43861.56, -187500.02, 0.00, 0.00, 0.00
53, 46092.38, 55616.04, 70050.27, -187500.02, -187500.02, 44102.40, 43736.66, -187500.02, 0.00, 0.00, 0.00
54, 45847.09, 55607.11, 69644.13, -187500.02, -187500.02, 43980.30, 43615.58, -187500.02, 0.00, 0.00, 0.00
55, 45685.27, 55510.31, 68849.96, -187500.02, -187500.02, 43937.23, 43656.98, -187500.02, 0.00, 0.00, 0.00
56, 45665.93, 55443.84, 67984.15, -187500.02, -187500.02, 44019.05, 43766.30, -187500.02, 0.00, 0.00, 0.00
57, 45658.87, 55497.55, 67496.66, -187500.02, -187500.02, 44037.16, 43710.78, -187500.02, 0.00, 0.00, 0.00
58, 45587.81, 55535.68, 67305.19, -187500.02, -187500.02, 43924.73, 43532.23, -187500.02, 0.00, 0.00, 0.00
59, 45522.32, 55462.10, 67174.57, -187500.02, -187500.02, 43826.47, 43497.63, -187500.02, 0.00, 0.00, 0.00
60, 45547.46, 55389.77, 66994.13, -187500.02, -187500.02, 43876.45, 43592.25, -187500.02, 0.00, 0.00, 0.00
61, 45584.77, 55425.13, 67015.40, -187500.02, -187500.02, 43912.32, 43558.25, -187500.02, 0.00, 0.00, 0.00
62, 45592.57, 55484.94, 67130.98, -187500.02, -187500.02, 43819.95, 43392.09, -187500.02, 0.00, 0.00, 0.00
63, 45571.70, 55466.50, 67132.81, -187500.02, -187500.02, 43726.85, 43352.84, -187500.02, 0.00, 0.00, 0.00
64, 45453.90, 55491.69, 67195.66, -187500.02, -187500.02, 43744.87, 43438.04, -187500.02, 0.00, 0.00, 0.00
65, 45402.74, 55548.08, 67355.44, -187500.02, -187500.02, 43798.38, 43463.66, -187500.02, 0.00, 0.00, 0.00
66, 45449.39, 55610.87, 67397.50, -187500.02, -187500.02, 43725.69, 43374.21, -187500.02, 0.00, 0.00, 0.00
67, 45461.55, 55595.58, 67348.33, -187500.02, -187500.02, 43632.62, 43379.46, -187500.02, 0.00, 0.00, 0.00
68, 45524.76, 55525.60, 67100.45, -187500.02, -187500.02, 43601.68, 43470.88, -187500.02, 0.00, 0.00, 0.00
69, 45628.61, 55547.95, 66766.52, -187500.02, -187500.02, 43677.39, 43569.72, -187500.02, 0.00, 0.00, 0.00
70, 45693.20, 55653.41, 66521.67, -187500.02, -187500.02, 43671.33, 43511.83, -187500.02, 0.00, 0.00, 0.00
71, 45674.96, 55701.20, 66342.28, -187500.02, -187500.02, 43565.74, 43410.46, -187500.02, 0.00, 0.00, 0.00
72, 45643.18, 55666.59, 66066.23, -187500.02, -187500.02, 43544.95, 43480.69, -187500.02, 0.00, 0.00, 0.00
73, 45625.72, 55673.45, 65787.06, -187500.02, -187500.02, 43600.83, 43518.40, -187500.02, 0.00, 0.00, 0.00
74, 45576.50, 55747.71, 65655.90, -187500.02, -187500.02, 43586.08, 43386.75, -187500.02, 0.00, 0.00, 0.00
75, 45499.75, 55765.88, 65601.98, -187500.02, -187500.02, 43461.16, 43180.02, -187500.02, 0.00, 0.00, 0.00
76, 45471.11, 55726.27, 65389.67, -187500.02, -187500.02, 43410.28, 43153.48, -187500.02, 0.00, 0.00, 0.00
77, 45523.86, 55736.55, 65087.09, -187500.02, -187500.02, 43485.65, 43209.90, -187500.02, 0.00, 0.00, 0.00
78, 45497.60, 55826.90, 65018.16, -187500.02, -187500.02, 43446.52, 43054.49, -187500.02, 0.00, 0.00, 0.00
79, 45376.57, 55841.36, 65056.38, -187500.02, -187500.02, 43293.79, 42846.30, -187500.02, 0.00, 0.00, 0.00
80, 45376.57, 55761.41, 64904.08, -187500.02, -187500.02, 43249.02, 42788.19, -187500.02, 0.00, 0.00, 0.00
81, 45453.86, 55736.69, 64688.54, -187500.02, -187500.02, 43326.82, 42762.37, -187500.02, 0.00, 0.00, 0.00
82, 45521.14, 55796.39, 64534.31, -187500.02, -187500.02, 43335.09, 42485.95, -187500.02, 0.00, 0.00, 0.00
83, 45487.61, 55845.16, 64420.68, -187500.02, -187500.02, 43223.87, 42101.59, -187500.02, 0.00, 0.00, 0.00
84, 45393.66, 55808.13, 64283.68, -187500.02, -187500.02, 43146.06, 41840.21, -187500.02, 0.00, 0.00, 0.00
85, 45356.36, 55753.65, 64052.25, -187500.02, -187500.02, 43205.85, 41791.82, -187500.02, 0.00, 0.00, 0.00
86, 45346.30, 55804.05, 63932.00, -187500.02, -187500.02, 43250.36, 41701.65, -187500.02, 0.00, 0.00, 0.00
87, 45306.52, 55874.46, 63933.23, -187500.02, -187500.02, 43180.15, 41589.40, -187500.02, 0.00, 0.00, 0.00
88, 45269.28, 55815.72, 63807.93, -187500.02, -187500.02, 43105.43, 41520.40, -187500.02, 0.00, 0.00, 0.00
89, 45289.55, 55715.01, 63574.46, -187500.02, -187500.02, 43180.89, 41527.86, -187500.02, 0.00, 0.00, 0.00
90, 45365.79, 55758.88, 63408.77, -187500.02, -187500.02, 43262.85, 41422.56, -187500.02, 0.00, 0.00, 0.00
91, 45367.02, 55879.43, 63418.04, -187500.02, -187500.02, 43205.68, 41160.49, -187500.02, 0.00, 0.00, 0.00
92, 45295.27, 55874.02, 63364.49, -187500.02, -187500.02, 43078.83, 40903.09, -187500.02, 0.00, 0.00, 0.00
93, 45086.77, 55787.14, 63126.98, -187500.02, -187500.02, 43120.18, 40966.23, -187500.02, 0.00, 0.00, 0.00
94, 44794.32, 55743.37, 62961.15, -187500.02, -187500.02, 43230.13, 41112.99, -187500.02, 0.00, 0.00, 0.00
95, 44460.99, 55727.23, 63058.61, -187500.02, -187500.02, 43186.92, 41086.84, -187500.02, 0.00, 0.00, 0.00
96, 44225.45, 55723.34, 63165.36, -187500.02, -187500.02, 43099.93, 41119.99, -187500.02, 0.00, 0.00, 0.00
97, 44057.14, 55571.84, 63005.74, -187500.02, -187500.02, 43101.85, 41258.23, -187500.02, 0.00, 0.00, 0.00
98, 44072.81, 55416.90, 62864.50, -187500.02, -187500.02, 43174.16, 41475.65, -187500.02, 0.00, 0.00, 0.00
99, 44039.28, 55382.14, 62948.50, -187500.02, -187500.02, 43122.73, 41683.12, -187500.02, 0.00, 0.00, 0.00
100, 43961.54, 55124.29, 63082.07, -187500.02, -187500.02, 43000.48, 41712.33, -187500.02, 0.00, 0.00, 0.00
101, 43960.14, 55061.04, 62996.33, -187500.02, -187500.02, 42947.94, 41808.82, -187500.02, 0.00, 0.00, 0.00
102, 44023.08, 54959.65, 62664.48, -187500.02, -187500.02, 42917.34, 42017.32, -187500.02, 0.00, 0.00, 0.00
103, 44299.55, 54656.27, 62362.39, -187500.02, -187500.02, 42837.25, 42189.56, -187500.02, 0.00, 0.00, 0.00
104, 44678.39, 54055.34, 62191.85, -187500.02, -187500.02, 42638.19, 42283.66, -187500.02, 0.00, 0.00, 0.00
105, 45097.91, 52841.24, 62059.01, -187500.02, -187500.02, 42493.53, 42513.20, -187500.02, 0.00, 0.00, 0.00
106, 45706.30, 51383.04, 61913.52, -187500.02, -187500.02, 42456.46, 42850.95, -187500.02, 0.00, 0.00, 0.00
107, 46680.45, 50364.49, 61649.13, -187500.02, -187500.02, 42271.02, 43264.13, -187500.02, 0.00, 0.00, 0.00
108, 47731.99, 49662.98, 61658.31, -187500.02, -187500.02, 41812.45, 43790.53, -187500.02, 0.00, 0.00, 0.00
109, 48539.47, 49248.74, 62169.88, -187500.02, -187500.02, 41287.85, 44577.71, -187500.02, 0.00, 0.00, 0.00
110, 49047.17, 48948.39, 62597.15, -187500.02, -187500.02, 40865.96, 45915.55, -187500.02, 0.00, 0.00, 0.00
111, 49550.33, 49053.09, 62402.98, -187500.02, -187500.02, 40480.04, 47324.36, -187500.02, 0.00, 0.00, 0.00
112, 50408.19, 49695.32, 62263.09, -187500.02, -187500.02, 40053.97, 48505.27, -187500.02, 0.00, 0.00, 0.00
113, 51446.23, 50039.72, 62191.02, -187500.02, -187500.02, 39659.84, 49984.89, -187500.02, 0.00, 0.00, 0.00
114, 52214.19, 50267.64, 61974.12, -187500.02, -187500.02, 39463.03, 51216.16, -187500.02, 0.00, 0.00, 0.00
115, 52835.99, 50788.04, 61513.92, -187500.02, -187500.02, 39412.25, 52229.21, -187500.02, 0.00, 0.00, 0.00
116, 53447.00, 51420.14, 60943.93, -187500.02, -187500.02, 39379.82, 53287.20, -187500.02, 0.00, 0.00, 0.00
117, 53984.45, 51823.77, 60067.41, -187500.02, -187500.02, 39443.92, 54160.93, -187500.02, 0.00, 0.00, 0.00
118, 54532.20, 51959.15, 58848.52, -187500.02, -187500.02, 39922.36, 54682.73, -187500.02, 0.00, 0.00, 0.00
119, 55017.72, 52134.04, 57523.42, -187500.02, -187500.02, 40912.21, 54882.52, -187500.02, 0.00, 0.00, 0.00
120, 55440.93, 52442.38, 56342.75, -187500.02, -187500.02, 41632.09, 54772.07, -187500.02, 0.00, 0.00, 0.00
121, 55934.70, 52754.96, 55108.85, -187500.02, -187500.02, 41959.83, 54710.50, -187500.02, 0.00, 0.00, 0.00
122, 56153.57, 52837.00, 53808.49, -187500.02, -187500.02, 42313.53, 54641.68, -187500.02, 0.00, 0.00, 0.00
123, 56285.33, 52754.88, 52666.48, -187500.02, -187500.02, 42992.33, 53629.16, -187500.02, 0.00, 0.00, 0.00
124, 56657.11, 52914.27, 52002.70, -187500.02, -187500.02, 43487.46, 52540.88, -187500.02, 0.00, 0.00, 0.00
125, 57041.67, 53212.82, 51524.90, -187500.02, -187500.02, 43582.01, 52427.60, -187500.02, 0.00, 0.00, 0.00
126, 56844.78, 53251.80, 51333.66, -187500.02, -187500.02, 43063.18, 52881.86, -187500.02, 0.00, 0.00, 0.00
127, 56831.97, 53121.89, 51407.09, -187500.02, -187500.02, 42590.04, 53608.85, -187500.02, 0.00, 0.00, 0.00
128, 57189.13, 53045.36, 51467.21, -187500.02, -187500.02, 42423.36, 54069.16, -187500.02, 0.00, 0.00, 0.00
129, 57242.46, 53292.84, 51781.57, -187500.02, -187500.02, 42568.47, 54921.90, -187500.02, 0.00, 0.00, 0.00
130, 57035.48, 53537.97, 51888.03, -187500.02, -187500.02, 42689.89, 55660.22, -187500.02, 0.00, 0.00, 0.00
131, 57014.74, 53652.23, 51629.27, -187500.02, -187500.02, 42994.68, 56156.61, -187500.02, 0.00, 0.00, 0.00
132, 57381.96, 53742.60, 51311.64, -187500.02, -187500.02, 43057.48, 55842.90, -187500.02, 0.00, 0.00, 0.00
133, 57681.78, 53630.39, 51339.25, -187500.02, -187500.02, 42893.98, 54215.70, -187500.02, 0.00, 0.00, 0.00
134, 57674.50, 53128.35, 51654.19, -186791.52, -187500.02, 42290.01, 53451.80, -187500.02, 0.00, 0.00, 0.00
135, 57679.34, 52854.68, 51720.71, -186342.98, -187500.02, 41781.69, 53720.09, -187500.02, 0.00, 0.00, 0.00
136, 58106.13, 52871.55, 51914.38, -185874.28, -187500.02, 41804.38, 53748.03, -187500.02, 0.00, 0.00, 0.00
137, 58476.45, 53167.69, 52226.48, -185067.94, -187500.02, 42257.00, 53721.32, -187500.02, 0.00, 0.00, 0.00
138, 58595.34, 53433.16, 52328.88, -184422.56, -187500.02, 42605.82, 54151.48, -187500.02, 0.00, 0.00, 0.00
139, 58453.74, 53805.41, 52530.73, -184198.97, -187500.02, 42596.79, 54904.38, -187500.02, 0.00, 0.00, 0.00
140, 57914.13, 54173.68, 53121.63, -184004.78, -187500.02, 42225.13, 55530.40, -187500.02, 0.00, 0.00, 0.00
141, 57872.33, 54579.07, 53075.63, -183632.63, -187500.02, 41567.83, 56152.68, -187500.02, 0.00, 0.00, 0.00
142, 58056.96, 54973.40, 52777.07, -183389.95, -187500.02, 40998.69, 56215.06, -187500.02, 0.00, 0.00, 0.00
143, 58091.96, 55351.48, 52624.01, -183430.41, -187500.02, 40420.02, 56077.53, -187500.02, 0.00, 0.00, 0.00
144, 58266.37, 55856.27, 52429.68, -183377.48, -187204.06, 39892.23, 56587.26, -187500.02, 0.00, 0.00, 0.00
145, 58599.81, 56496.49, 52263.05, -182996.23, -186106.34, 39663.97, 57350.53, -187500.02, 0.00, 0.00, 0.00
146, 58430.34, 57175.27, 52086.80, -182679.23, -184891.44, 39341.21, 57989.54, -187500.02, 0.00, 0.00, 0.00
147, 58027.00, 57650.20, 51982.69, -182743.19, -183926.98, 38862.35, 58453.34, -187500.02, 0.00, 0.00, 0.00
148, 57931.09, 57991.29, 51794.46, -182813.92, -183022.22, 38544.33, 58854.55, -187500.02, 0.00, 0.00, 0.00
149, 57904.61, 58309.48, 51627.95, -182583.77, -181828.80, 38463.46, 59188.00, -187500.02, 0.00, 0.00, 0.00
150, 58028.08, 58347.86, 51365.94, -182087.78, -180314.22, 38492.81, 59457.49, -187500.02, 0.00, 0.00, 0.00
151, 58120.86, 57500.42, 51273.31, -181653.20, -178966.75, 38375.24, 60078.20, -187500.02, 0.00, 0.00, 0.00
152, 57700.82, 57037.67, 51304.09, -180976.72, -177698.31, 38544.96, 60602.08, -187500.02, 0.00, 0.00, 0.00
153, 57760.66, 57380.26, 50971.09, -179531.06, -176057.38, 39124.67, 60724.46, -187500.02, 0.00, 0.00, 0.00
154, 57714.97, 57483.45, 50857.26, -177380.78, -174161.41, 39506.44, 60962.30, -187500.02, 0.00, 0.00, 0.00
155, 57379.54, 57671.77, 50679.43, -175288.20, -172347.39, 40082.00, 61180.68, -187500.02, 0.00, 0.00, 0.00
156, 57456.48, 58132.68, 50484.63, -173408.03, -170554.16, 40882.99, 61458.55, -187500.02, 0.00, 0.00, 0.00
157, 57331.69, 58526.41, 50429.71, -171422.36, -168457.98, 41516.60, 61818.53, -187500.02, 0.00, 0.00, 0.00
158, 57401.76, 58603.72, 50038.36, -169252.28, -166152.61, 41956.55, 61957.80, -187500.02, 0.00, 0.00, 0.00
159, 57369.89, 58723.75, 49758.42, -167301.66, -163930.34, 42170.12, 61854.79, -187500.02, 0.00, 0.00, 0.00
160, 57144.27, 59008.11, 49736.45, -165395.81, -161971.58, 42247.50, 61831.20, -187500.02, 0.00, 0.00, 0.00
161, 56837.00, 59365.56, 49870.83, -162946.78, -159861.81, 42478.98, 61793.36, -187500.02, 0.00, 0.00, 0.00
162, 56480.42, 59281.88, 50028.03, -160251.42, -157498.72, 42689.02, 61588.24, -187500.02, 0.00, 0.00, 0.00
163, 56518.62, 58373.88, 50156.39, -157505.27, -155152.55, 42860.50, 61152.49, -187500.02, 0.00, 0.00, 0.00
164, 56587.98, 57899.20, 50436.15, -155187.75, -152805.38, 43319.94, 60799.71, -187500.02, 0.00, 0.00, 0.00
165, 56517.75, 58327.41, 50613.04, -153070.81, -150397.00, 44049.52, 60524.81, -187500.02, 0.00, 0.00, 0.00
166, 56199.13, 58875.75, 50833.21, -150708.52, -147670.39, 44963.57, 60143.42, -187500.02, 0.00, 0.00, 0.00
167, 56025.00, 59125.41, 51073.82, -148375.69, -145035.19, 45872.44, 59790.87, -187500.02, 0.00, 0.00, 0.00
168, 55852.45, 59170.72, 51375.55, -146058.81, -142582.80, 46243.12, 59487.85, -187500.02, 0.00, 0.00, 0.00
169, 55693.44, 59273.98, 51617.29, -143459.23, -140087.19, 46612.64, 59026.91, -187500.02, 0.00, 0.00, 0.00
170, 55516.77, 59444.66, 51689.48, -140536.67, -137118.16, 47244.19, 58465.25, -187500.02, 0.00, 0.00, 0.00
171, 55358.88, 59486.66, 51690.15, -137627.44, -134053.63, 47863.00, 58082.84, -187500.02, 0.00, 0.00, 0.00
172, 55386.77, 59108.70, 51639.73, -135039.67, -131153.69, 48354.18, 57739.56, -187500.02, 0.00, 0.00, 0.00
173, 55181.47, 58596.84, 51792.72, -132534.03, -128439.98, 48819.07, 57361.05, -187500.02, 0.00, 0.00, 0.00
174, 55045.44, 58428.66, 51714.76, -129650.93, -125231.77, 49485.69, 56960.56, -187342.30, 0.00, 0.00, 0.00
175, 55137.04, 58384.36, 51553.65, -126629.31, -121769.22, 50136.10, 56604.36, -187042.00, 0.00, 0.00, 0.00
176, 55229.66, 57798.84, 51565.67, -124246.33, -118638.59, 50511.12, 56232.52, -186838.47, 0.00, 0.00, 0.00
177, 55525.11, 57240.78, 51105.16, -122093.70, -115648.95, 50886.02, 55720.26, -186710.75, 0.00, 0.00, 0.00
178, 55313.32, 56988.16, 50361.03, -119748.35, -112636.45, 51406.60, 55394.28, -186568.33, 0.00, 0.00, 0.00
179, 54978.50, 56562.38, 49509.89, -117167.55, -109136.14, 51990.63, 55242.74, -186283.72, 0.00, 0.00, 0.00
180, 54705.09, 55746.39, 48998.66, -114569.72, -105608.30, 52471.01, 54989.45, -186016.11, 0.00, 0.00, 0.00
181, 54304.66, 55329.53, 48646.63, -112124.75, -102310.88, 52850.12, 54693.53, -185860.38, 0.00, 0.00, 0.00
182, 53642.08, 55221.05, 48234.84, -109511.56, -98557.47, 53355.63, 54406.56, -185606.16, 0.00, 0.00, 0.00
183, 52743.05, 55159.43, 47840.02, -106755.52, -94428.36, 53888.18, 54152.17, -185240.20, 0.00, 0.00, 0.00
184, 52395.88, 55125.97, 47625.35, -104200.39, -90493.31, 54334.59, 53987.13, -185143.38, 0.00, 0.00, 0.00
185, 52713.86, 55151.74, 47589.45, -101728.73, -86603.93, 54693.96, 53797.43, -185105.88, 0.00, 0.00, 0.00
186, 52465.33, 55118.30, 47552.64, -98916.79, -82241.43, 55107.20, 53545.46, -184931.63, 0.00, 0.00, 0.00
187, 52076.77, 55035.38, 47285.16, -95898.21, -77380.44, 55560.78, 53319.59, -184687.31, 0.00, 0.00, 0.00
188, 52461.31, 54896.80, 46686.38, -93051.85, -72557.05, 55806.70, 53086.71, -184370.23, 0.00, 0.00, 0.00
189, 53246.30, 54859.70, 46117.17, -90540.63, -67541.85, 55978.94, 52882.01, -184141.33, 0.00, 0.00, 0.00
190, 53157.43, 54791.63, 46357.76, -87923.71, -61844.50, 56231.89, 52717.17, -183855.36, 0.00, 0.00, 0.00
191, 52176.66, 54726.14, 47017.88, -85118.88, -55862.44, 56451.56, 52549.42, -183536.69, 0.00, 0.00, 0.00
192, 51520.99, 54738.50, 47466.34, -82270.60, -50092.31, 56703.82, 52397.72, -183230.67, 0.00, 0.00, 0.00
193, 51964.29, 54686.20, 48164.57, -79328.30, -43848.51, 56996.07, 52203.75, -182832.77, 0.00, 0.00, 0.00
194, 52682.52, 54363.66, 48733.64, -76370.59, -37565.21, 57264.39, 52002.14, -182530.28, 0.00, 0.00, 0.00
195, 53348.76, 53427.20, 48046.77, -73380.51, -31659.10, 57530.91, 51902.11, -182312.98, 0.00, 0.00, 0.00
196, 53014.87, 52822.49, 46913.88, -70452.09, -26068.84, 57787.73, 51879.92, -182044.69, 0.00, 0.00, 0.00
197, 53286.98, 53457.28, 46751.42, -67752.54, -20851.94, 58023.96, 51800.16, -181558.63, 0.00, 0.00, 0.00
198, 53362.38, 55826.48, 46595.81, -65093.24, -15196.53, 58172.13, 51686.26, -181063.92, 0.00, 0.00, 0.00
199, 53032.55, 56974.57, 45099.74, -62421.74, -9359.43, 58284.56, 51710.00, -180831.95, 0.00, 0.00, 0.00
200, 52304.40, 56278.81, 44130.41, -59844.00, -3727.62, 58271.91, 51819.75, -180578.33, 0.00, 0.00, 0.00
201, 50574.13, 56052.90, 43858.99, -57552.97, 1525.82, 58063.77, 52003.28, -180333.64, 0.00, 0.00, 0.00
202, 48579.17, 56258.85, 43191.39, -55377.47, 7179.96, 57980.56, 52247.94, -180109.66, 0.00, 0.00, 0.00
203, 47946.12, 55806.56, 43767.91, -52872.18, 13558.19, 58016.03, 52485.22, -179669.42, 0.00, 0.00, 0.00
204, 47144.77, 55504.61, 45229.36, -50289.61, 20053.65, 58035.97, 52747.86, -179166.97, 0.00, 0.00, 0.00
205, 47222.77, 55267.57, 44845.73, -48065.82, 26100.20, 58015.02, 53163.60, -178761.72, 0.00, 0.00, 0.00
206, 47393.54, 54805.54, 45163.24, -46056.04, 31946.99, 58079.17, 53785.58, -178428.66, 0.00, 0.00, 0.00
207, 47301.41, 54193.52, 47275.97, -43858.84, 37484.52, 58285.68, 54619.41, -178011.64, 0.00, 0.00, 0.00
208, 47006.70, 53853.46, 49488.06, -41552.09, 42575.98, 58452.63, 55463.86, -177567.75, 0.00, 0.00, 0.00
209, 46238.47, 53844.30, 51161.20, -39503.62, 47902.60, 58489.95, 56317.16, -177169.42, 0.00, 0.00, 0.00
210, 43948.56, 54203.67, 53140.67, -37758.93, 53094.91, 58473.30, 57323.82, -176924.00, 0.00, 0.00, 0.00
211, 43287.30, 54676.72, 52972.16, -35826.94, 59264.06, 58559.64, 58579.20, -176640.16, 0.00, 0.00, 0.00
212, 43733.38, 54433.74, 52263.59, -33789.51, 65036.87, 58647.73, 59756.56, -176283.11, 0.00, 0.00, 0.00
213, 43723.34, 54203.29, 52976.80, -32053.43, 68199.88, 58604.17, 60529.15, -176076.22, 0.00, 0.00, 0.00
214, 43127.09, 55235.83, 52074.15, -30810.02, 67756.70, 58441.16, 61019.43, -176278.53, 0.00, 0.00, 0.00
215, 42256.24, 55885.66, 52609.25, -29440.17, 66563.13, 58451.78, 61377.66, -176429.13, 0.00, 0.00, 0.00
216, 43481.76, 55513.30, 54435.77, -27674.79, 66958.72, 58570.46, 61480.35, -176140.84, 0.00, 0.00, 0.00
217, 45020.61, 55227.16, 55373.50, -26074.63, 68053.44, 58557.28, 61250.68, -175872.34, 0.00, 0.00, 0.00
218, 47837.05, 55715.83, 54997.14, -24876.13, 67449.74, 58431.53, 60834.54, -175833.70, 0.00, 0.00, 0.00
219, 52062.55, 56207.75, 54583.83, -23696.38, 65875.35, 58365.45, 60340.12, -175849.75, 0.00, 0.00, 0.00
220, 54051.01, 56123.93, 55707.16, -22198.19, 66237.05, 58404.82, 59860.50, -175717.86, 0.00, 0.00, 0.00
221, 52438.51, 55667.11, 62638.08, -20574.06, 66849.22, 58426.25, 59313.55, -175325.77, 0.00, 0.00, 0.00
222, 48899.11, 56021.92, 70918.23, -19357.10, 65832.93, 58273.39, 58673.35, -175140.47, 0.00, 0.00, 0.00
223, 44837.96, 56973.54, 73391.10, -18577.92, 62769.89, 58038.20, 58103.00, -175576.55, 0.00, 0.00, 0.00
224, 43396.87, 57246.30, 68132.98, -17766.71, 60197.00, 57936.64, 57757.17, -176293.25, 0.00, 0.00, 0.00
225, 45764.21, 56927.50, 61404.91, -16831.42, 58198.13, 57944.13, 57525.50, -176774.17, 0.00, 0.00, 0.00
226, 47446.02, 56576.69, 54720.04, -16165.97, 56864.91, 57847.16, 57239.26, -177258.83, 0.00, 0.00, 0.00
227, 47164.01, 55545.56, 54639.22, -15331.31, 57331.57, 57876.55, 56935.21, -177502.53, 0.00, 0.00, 0.00
228, 50146.45, 54096.20, 59135.83, -13806.81, 59076.08, 58003.87, 56402.14, -177138.11, 0.00, 0.00, 0.00
229, 53122.96, 53578.49, 61621.43, -12174.26, 62013.66, 57976.67, 55726.99, -176662.81, 0.00, 0.00, 0.00
230, 55806.47, 53923.87, 65132.31, -10752.69, 64930.68, 57839.70, 54882.07, -176133.22, 0.00, 0.00, 0.00
231, 57232.33, 55463.46, 69982.41, -9500.34, 68331.00, 57684.80, 54069.49, -175617.83, 0.00, 0.00, 0.00
232, 56507.87, 57076.12, 75197.63, -8291.96, 69591.87, 57514.41, 53654.20, -175314.81, 0.00, 0.00, 0.00
233, 55001.14, 58292.10, 80445.52, -7235.44, 64694.17, 57273.23, 53378.00, -175404.61, 0.00, 0.00, 0.00
234, 54039.79, 58009.50, 82054.86, -6590.01, 58723.30, 57036.93, 53422.37, -175893.05, 0.00, 0.00, 0.00
235, 54998.48, 57940.66, 82849.42, -5976.97, 54370.82, 56937.71, 53804.29, -176154.67, 0.00, 0.00, 0.00
236, 57541.39, 57697.14, 86745.38, -5026.71, 48609.39, 56781.90, 54542.52, -176123.31, 0.00, 0.00, 0.00
237, 56566.68, 55856.72, 97966.77, -3420.04, 49758.63, 56919.18, 55047.16, -175402.11, 0.00, 0.00, 0.00
238, 60336.99, 54343.23, 102450.20, -2202.94, 50978.98, 56981.16, 55084.93, -174804.42, 0.00, 0.00, 0.00
239, 67254.07, 53514.16, 93796.32, -1594.26, 54934.37, 56782.10, 54963.88, -174818.78, 0.00, 0.00, 0.00
240, 69729.91, 53351.31, 71866.09, -1892.32, 55759.57, 56254.40, 54767.41, -176159.08, 0.00, 0.00, 0.00
241, 68231.13, 54394.64, 57889.18, -1728.51, 54328.33, 56051.60, 54226.63, -177199.23, 0.00, 0.00, 0.00
242, 69580.69, 56828.08, 66058.59, -492.79, 49845.08, 56259.34, 52362.11, -176700.80, 0.00, 0.00, 0.00
243, 77362.80, 60151.96, 79840.23, 1133.61, 47222.24, 56444.52, 49373.64, -175367.47, 0.00, 0.00, 0.00
244, 84940.47, 61223.80, 90359.27, 2744.75, 51230.29, 56564.86, 45974.88, -174073.02, 0.00, 0.00, 0.00
245, 87628.55, 50481.66, 92164.17, 3680.06, 61361.30, 56572.69, 43231.60, -173982.67, 0.00, 0.00, 0.00
246, 83395.79, 32642.60, 92837.09, 3788.93, 71090.26, 56337.88, 41661.44, -174877.05, 0.00, 0.00, 0.00
247, 81309.19, 25418.25, 92400.66, 3394.85, 64553.54, 55869.37, 41450.14, -176216.92, 0.00, 0.00, 0.00
248, 79831.80, 25075.42, 92841.39, 3270.26, 51364.29, 55862.46, 42903.41, -177465.27, 0.00, 0.00, 0.00
249, 77906.73, 28622.95, 95363.52, 4127.85, 45402.52, 56508.52, 45945.93, -177588.06, 0.00, 0.00, 0.00
250, 74140.87, 34345.00, 95829.97, 5272.33, 45410.65, 57214.29, 49589.31, -177248.97, 0.00, 0.00, 0.00
251, 70314.31, 37999.39, 89935.51, 5621.93, 45022.20, 57507.57, 52812.43, -177488.69, 0.00, 0.00, 0.00
252, 67284.74, 40248.20, 90067.00, 6012.37, 44550.47, 58047.88, 54210.20, -177387.14, 0.00, 0.00, 0.00
253, 65431.22, 42491.36, 98400.27, 7224.60, 47814.16, 58829.45, 53015.77, -176296.72, 0.00, 0.00, 0.00
254, 66454.51, 44123.04, 106549.04, 8531.64, 50950.55, 59301.50, 49136.80, -175220.61, 0.00, 0.00, 0.00
255, 67541.36, 46333.31, 112224.38, 9042.69, 44667.41, 59308.30, 46726.01, -175052.17, 0.00, 0.00, 0.00
0, 67236.82, 50034.87, 111372.84, 9101.94, 41001.34, 58965.66, 44750.45, -175295.38, 0.00, 0.00, 0.00
1, 71151.61, 54500.05, 90589.67, 9082.70, 48778.14, 58653.52, 41509.13, -176042.94, 0.00, 0.00, 0.00
2, 75840.43, 57168.59, 70965.45, 9264.98, 54597.09, 58370.13, 38536.84, -176755.88, 0.00, 0.00, 0.00
3, 79703.16, 58656.56, 60497.39, 9444.17, 53978.07, 58320.30, 39390.05, -177136.34, 0.00, 0.00, 0.00
4, 77450.09, 58978.83, 59674.44, 9596.12, 54172.31, 58557.16, 42163.95, -177205.36, 0.00, 0.00, 0.00
5, 70223.26, 58850.62, 59750.75, 9681.08, 56767.28, 58877.67, 43547.25, -177304.52, 0.00, 0.00, 0.00
6, 66248.58, 58098.06, 63241.98, 10281.15, 61145.39, 59601.30, 40573.80, -176993.52, 0.00, 0.00, 0.00
7, 66709.74, 56877.12, 66168.56, 10978.86, 66345.45, 60263.50, 36561.82, -176658.06, 0.00, 0.00, 0.00
8, 67383.20, 55631.23, 63934.79, 11238.66, 71149.20, 60441.30, 34845.99, -176711.95, 0.00, 0.00, 0.00
9, 67323.20, 54683.94, 60479.86, 11317.20, 72792.16, 60564.38, 34848.65, -176887.77, 0.00, 0.00, 0.00
10, 66476.05, 54239.57, 58482.09, 11693.18, 72822.36, 60856.60, 35257.33, -177007.81, 0.00, 0.00, 0.00
11, 65222.37, 54129.17, 57326.39, 12021.93, 72076.66, 61141.32, 35640.64, -177022.61, 0.00, 0.00, 0.00
12, 63872.81, 53875.91, 56346.45, 11913.48, 71364.18, 61277.33, 35766.95, -177210.88, 0.00, 0.00, 0.00
13, 62879.28, 54153.00, 55184.45, 11776.91, 70663.16, 61453.55, 35655.23, -177512.66, 0.00, 0.00, 0.00
14, 62575.54, 54602.20, 54383.29, 12028.23, 70314.30, 61752.48, 35754.56, -177663.80, 0.00, 0.00, 0.00
15, 62648.23, 54968.30, 53743.89, 12318.90, 70232.62, 62005.37, 35863.69, -177608.44, 0.00, 0.00, 0.00
16, 62569.71, 55129.68, 53114.36, 12362.84, 71555.13, 62196.03, 35740.50, -177589.28, 0.00, 0.00, 0.00
17, 62475.67, 55218.13, 52633.62, 12211.16, 70130.67, 62256.11, 35524.21, -177919.19, 0.00, 0.00, 0.00
18, 62720.07, 55679.27, 52467.54, 12396.37, 67855.78, 62489.51, 35457.82, -178202.67, 0.00, 0.00, 0.00
19, 62671.34, 56022.14, 52430.33, 12769.84, 66587.45, 62766.85, 35533.21, -178394.20, 0.00, 0.00, 0.00
20, 62797.20, 56070.27, 52399.66, 12742.80, 64105.27, 62862.78, 35525.95, -178878.52, 0.00, 0.00, 0.00
21, 63242.34, 56093.89, 52456.21, 12561.93, 61653.86, 62950.09, 35340.59, -179558.17, 0.00, 0.00, 0.00
22, 63824.51, 56268.41, 52706.89, 12718.50, 59942.66, 63200.63, 35149.95, -180002.95, 0.00, 0.00, 0.00
23, 64314.80, 56679.48, 52825.06, 13071.79, 59179.88, 63546.36, 34905.67, -180251.92, 0.00, 0.00, 0.00
24, 63982.89, 58112.34, 52441.17, 13125.53, 57753.84, 63729.98, 34554.59, -180663.72, 0.00, 0.00, 0.00
25, 64050.35, 58281.23, 52483.75, 12986.54, 55835.06, 63789.42, 34437.38, -181223.63, 0.00, 0.00, 0.00
26, 64726.76, 57885.61, 52671.19, 13112.61, 54573.19, 63964.84, 34351.79, -181694.00, 0.00, 0.00, 0.00
27, 65171.85, 57803.73, 53175.54, 13521.13, 53992.76, 64240.27, 34290.23, -181969.48, 0.00, 0.00, 0.00
28, 65546.53, 58065.76, 53110.76, 13797.31, 53725.12, 64407.73, 35063.63, -182204.16, 0.00, 0.00, 0.00
29, 65745.84, 58357.68, 52861.94, 13771.24, 54682.54, 64469.71, 35298.63, -182547.41, 0.00, 0.00, 0.00
30, 66091.87, 58530.59, 52801.97, 13925.72, 56301.14, 64671.26, 34556.38, -182993.88, 0.00, 0.00, 0.00
31, 66565.59, 58759.38, 53044.13, 14347.94, 56960.71, 64936.84, 34021.05, -183341.42, 0.00, 0.00, 0.00
32, 66925.63, 59255.66, 53084.90, 14607.09, 57240.47, 65130.05, 33814.21, -183600.84, 0.00, 0.00, 0.00
33, 66921.01, 59896.62, 53250.44, 14542.02, 57502.16, 65222.52, 33783.12, -184009.81, 0.00, 0.00, 0.00
34, 66944.41, 60493.23, 53276.10, 14612.30, 57929.19, 65371.95, 33947.52, -184454.33, 0.00, 0.00, 0.00
35, 67248.55, 60961.12, 52979.38, 15008.61, 58665.46, 65604.23, 34352.02, -184756.56, 0.00, 0.00, 0.00
36, 67163.10, 61402.99, 52422.02, 15378.07, 59296.96, 65783.59, 35040.52, -185019.95, 0.00, 0.00, 0.00
37, 66974.30, 61580.48, 51537.04, 15423.13, 59684.77, 65843.01, 35967.66, -185413.03, 0.00, 0.00, 0.00
38, 66938.66, 61891.75, 50717.89, 15500.38, 60022.48, 65917.39, 37182.59, -185871.38, 0.00, 0.00, 0.00
39, 66958.70, 62217.78, 50470.10, 15964.20, 60276.86, 66138.72, 38608.75, -186162.36, 0.00, 0.00, 0.00
40, 66757.48, 62673.30, 50183.04, 16462.84, 60433.88, 66322.92, 39900.81, -186454.05, 0.00, 0.00, 0.00
41, 66041.87, 63183.75, 49956.95, 16619.66, 60412.83, 66362.69, 41258.93, -186846.89, 0.00, 0.00, 0.00
42, 65651.05, 63495.25, 50560.65, 16764.66, 60095.41, 66379.85, 42680.05, -187253.70, 0.00, 0.00, 0.00
43, 65226.57, 63895.01, 51697.97, 17297.86, 59904.26, 66482.11, 43859.20, -187500.02, 0.00, 0.00, 0.00
44, 64565.38, 64240.18, 52277.35, 17908.46, 59834.05, 66642.13, 44643.79, -187500.02, 0.00, 0.00, 0.00
45, 64032.83, 64293.43, 52324.31, 18209.50, 59495.34, 66685.16, 45003.52, -187500.02, 0.00, 0.00, 0.00
46, 63586.38, 64470.50, 52868.64, 18364.77, 59201.92, 66624.02, 44958.12, -187500.02, 0.00, 0.00, 0.00
47, 63232.57, 64832.84, 54025.26, 18758.46, 59115.80, 66658.31, 44544.77, -187500.02, 0.00, 0.00, 0.00
48, 63110.66, 65394.34, 55688.70, 19352.97, 59033.50, 66763.49, 43907.03, -187500.02, 0.00, 0.00, 0.00
49, 62970.83, 65453.30, 57531.69, 19676.82, 58770.91, 66729.99, 43212.22, -187500.02, 0.00, 0.00, 0.00
50, 62880.26, 65421.00, 58759.45, 19777.11, 58398.54, 66498.29, 42585.08, -187500.02, 0.00, 0.00, 0.00
51, 63396.50, 65590.66, 58254.07, 20102.71, 58177.32, 66264.43, 42091.11, -187500.02, 0.00, 0.00, 0.00
52, 64094.59, 65824.52, 56283.61, 20630.68, 57957.09, 66025.02, 41613.47, -187500.02, 0.00, 0.00, 0.00
53, 64347.72, 65985.70, 53057.63, 20920.18, 57482.34, 65704.31, 41142.79, -187500.02, 0.00, 0.00, 0.00
54, 64457.64, 66010.11, 51153.60, 20936.72, 57051.57, 65395.28, 40601.50, -187500.02, 0.00, 0.00, 0.00
55, 64803.83, 66167.84, 49762.63, 21120.61, 56875.00, 65082.69, 40121.27, -187500.02, 0.00, 0.00, 0.00
56, 64831.97, 66572.39, 48878.82, 21759.11, 56703.80, 64701.05, 39699.36, -187500.02, 0.00, 0.00, 0.00
57, 64582.68, 66788.38, 48856.96, 22448.73, 56509.90, 64276.08, 39170.74, -187500.02, 0.00, 0.00, 0.00
58, 64486.14, 67005.27, 48740.75, 22885.35, 56322.39, 63846.32, 38646.99, -187500.02, 0.00, 0.00, 0.00
59, 64408.76, 66919.82, 48940.02, 23421.77, 56230.01, 63515.12, 38306.48, -187500.02, 0.00, 0.00, 0.00
60, 64578.25, 66036.53, 47967.63, 24158.75, 56163.92, 63293.70, 38116.36, -187500.02, 0.00, 0.00, 0.00
61, 64453.22, 65321.63, 47260.66, 24856.64, 56135.46, 63028.41, 37916.00, -187500.02, 0.00, 0.00, 0.00
62, 64208.98, 65185.04, 47060.68, 25312.70, 56100.71, 62516.84, 37723.02, -187500.02, 0.00, 0.00, 0.00
63, 64556.55, 65575.48, 46058.83, 25681.42, 55807.50, 62067.84, 37660.77, -187500.02, 0.00, 0.00, 0.00
64, 64963.62, 66271.47, 45369.66, 26348.86, 55287.48, 61788.40, 37542.01, -187500.02, 0.00, 0.00, 0.00
65, 64763.48, 66855.70, 45548.88, 27074.13, 54492.81, 61438.39, 37276.45, -187500.02, 0.00, 0.00, 0.00
66, 64334.49, 67135.95, 46404.70, 27644.86, 55341.89, 61123.68, 37144.38, -187500.02, 0.00, 0.00, 0.00
67, 64263.63, 67207.76, 46777.28, 28114.02, 56715.38, 60798.98, 37108.68, -187500.02, 0.00, 0.00, 0.00
68, 64341.75, 67204.72, 45426.63, 28774.52, 57871.37, 60369.45, 37059.50, -187500.02, 0.00, 0.00, 0.00
69, 64715.47, 66975.63, 41824.61, 29479.29, 58618.92, 59825.02, 37081.30, -187500.02, 0.00, 0.00, 0.00
70, 64807.32, 66777.73, 38777.77, 29901.34, 58006.98, 59639.17, 37068.78, -187500.02, 0.00, 0.00, 0.00
71, 63984.08, 66829.21, 36799.53, 30169.94, 58223.32, 59847.87, 37075.13, -187500.02, 0.00, 0.00, 0.00
72, 62994.79, 66801.70, 35777.09, 30599.38, 59275.48, 60473.85, 37044.46, -187500.02, 0.00, 0.00, 0.00
73, 62099.27, 67606.72, 35500.29, 31277.78, 59540.89, 61540.34, 36968.29, -187500.02, 0.00, 0.00, 0.00
74, 61676.02, 69666.61, 35976.65, 32018.07, 58518.05, 62432.89, 36834.31, -187500.02, 0.00, 0.00, 0.00
75, 62111.11, 71200.12, 37405.62, 32631.04, 57267.65, 62399.68, 36818.08, -187500.02, 0.00, 0.00, 0.00
76, 63161.49, 71674.58, 39914.54, 33410.40, 58182.26, 62358.41, 36873.20, -187500.02, 0.00, 0.00, 0.00
77, 64845.00, 71489.46, 42523.32, 34372.29, 59223.47, 62579.77, 36878.05, -187500.02, 0.00, 0.00, 0.00
78, 66281.19, 70976.48, 45089.59, 35109.25, 59811.99, 62614.68, 36994.95, -186617.55, 0.00, 0.00, 0.00
79, 65831.16, 70511.73, 47540.01, 35414.50, 61470.29, 62480.57, 37310.49, -185794.84, 0.00, 0.00, 0.00
80, 60743.72, 70072.47, 49750.29, 35672.36, 63080.84, 62626.81, 37966.94, -185459.14, 0.00, 0.00, 0.00
81, 52844.39, 69374.54, 51501.03, 35882.33, 60399.80, 63020.83, 39078.54, -185580.52, 0.00, 0.00, 0.00
82, 45859.48, 68829.87, 52769.23, 35619.70, 53283.00, 63705.51, 40052.20, -185738.47, 0.00, 0.00, 0.00
83, 41916.80, 67750.33, 53894.17, 35209.23, 47500.43, 64586.23, 40473.46, -185642.11, 0.00, 0.00, 0.00
84, 41029.98, 66259.17, 55683.94, 35273.82, 46529.18, 65460.84, 40859.17, -185122.34, 0.00, 0.00, 0.00
85, 41100.01, 65581.70, 57132.69, 35752.75, 47274.23, 66309.11, 42291.89, -184188.78, 0.00, 0.00, 0.00
86, 41860.03, 64732.26, 57318.10, 36111.25, 47746.57, 67181.12, 44281.44, -183104.80, 0.00, 0.00, 0.00
87, 43800.54, 64017.76, 56875.20, 36161.19, 47289.32, 67793.29, 46571.55, -182024.78, 0.00, 0.00, 0.00
88, 45192.54, 63874.27, 55879.31, 36017.91, 47491.51, 66360.25, 48555.14, -181175.23, 0.00, 0.00, 0.00
89, 47010.30, 63715.10, 55670.57, 36069.61, 48144.61, 63547.21, 50284.65, -180270.66, 0.00, 0.00, 0.00
90, 49781.89, 62953.98, 56987.29, 36345.12, 49732.16, 64284.40, 51637.40, -178792.58, 0.00, 0.00, 0.00
91, 52460.77, 62379.43, 57731.20, 36263.00, 51283.53, 67808.22, 51951.51, -177208.92, 0.00, 0.00, 0.00
92, 54812.93, 62121.71, 57780.80, 35976.03, 52591.39, 70934.06, 51058.65, -175890.00, 0.00, 0.00, 0.00
93, 57774.88, 62098.48, 58059.97, 35964.13, 53751.59, 72854.70, 49415.95, -174440.03, 0.00, 0.00, 0.00
94, 62404.37, 61718.42, 58392.12, 36165.75, 54453.47, 73879.02, 47374.16, -172881.44, 0.00, 0.00, 0.00
95, 66141.89, 59173.61, 57940.75, 35889.46, 55681.93, 74284.10, 44307.57, -171724.84, 0.00, 0.00, 0.00
